##NAMES=Actinolite
##RRUFFID=R040063
##IDEAL CHEMISTRY=Ca_2_(Mg_4.5-2.5_Fe^2+^_0.5-2.5_)_&#931;=5_Si_8_O_22_(OH)_2_
##LOCALITY=Harford County, Maryland, USA
##OWNER=RRUFF
##SOURCE=University of Arizona Mineral Museum
##DESCRIPTION=Mass of green acicular to bladed crystals associated with chlorite
##STATUS=The identification of this mineral has been confirmed by X-ray diffraction and chemical analysis
##URL=rruff.info/R040063
5.000, 0.000
5.010, 23.020
5.020, 0.104
5.030, 10.997
5.040, 24.297
5.050, 19.683
5.060, 19.149
5.070, 27.893
5.080, 25.472
5.090, 21.075
5.100, 21.717
5.110, 36.390
5.120, 14.217
5.130, 23.282
5.140, 2.994
5.150, 15.714
5.160, 8.443
5.170, 14.180
5.180, 25.927
5.190, 31.684
5.200, 8.792
5.210, 9.549
5.220, 17.316
5.230, 9.092
5.240, 0.124
5.250, 26.297
5.260, 0.926
5.270, 3.861
5.280, 5.656
5.290, 13.460
5.300, 11.273
5.310, 9.093
5.320, 7.921
5.330, 10.756
5.340, 10.597
5.350, 4.444
5.360, 6.297
5.370, 8.155
5.380, 8.018
5.390, 2.115
5.400, 19.757
5.410, 24.634
5.420, 10.514
5.430, 17.398
5.440, 16.286
5.450, 20.178
5.460, 14.074
5.470, 18.973
5.480, 20.876
5.490, 4.218
5.500, 1.692
5.510, 6.605
5.520, 13.522
5.530, 3.441
5.540, 26.365
5.550, 3.293
5.560, 21.225
5.570, 18.166
5.580, 5.109
5.590, 11.054
5.600, 26.003
5.610, 5.950
5.620, 11.903
5.630, 19.857
5.640, 12.810
5.650, 18.765
5.660, 17.720
5.670, 21.676
5.680, 13.632
5.690, 13.589
5.700, 5.548
5.710, 10.509
5.720, 4.470
5.730, 12.431
5.740, 11.394
5.750, 15.357
5.760, 19.321
5.770, 4.286
5.780, 13.252
5.790, 12.220
5.800, 17.187
5.810, 9.157
5.820, 18.127
5.830, 16.098
5.840, 14.072
5.850, 24.046
5.860, 20.021
5.870, 21.999
5.880, 16.979
5.890, 10.963
5.900, 22.948
5.910, 9.933
5.920, 8.920
5.930, 16.911
5.940, 8.900
5.950, 10.889
5.960, 9.879
5.970, 8.871
5.980, 15.870
5.990, 7.871
6.000, 5.874
6.010, 16.876
6.020, 19.879
6.030, 24.882
6.040, 12.889
6.050, 18.900
6.060, 11.913
6.070, 11.927
6.080, 24.023
6.090, 32.036
6.100, 18.051
6.110, 27.127
6.120, 28.145
6.130, 41.479
6.140, 48.495
6.150, 43.514
6.160, 29.532
6.170, 49.550
6.180, 45.569
6.190, 23.588
6.200, 53.650
6.210, 57.607
6.220, 66.460
6.230, 95.766
6.240, 100.737
6.250, 93.712
6.260, 160.689
6.270, 166.667
6.280, 161.648
6.290, 165.631
6.300, 138.615
6.310, 121.602
6.320, 64.589
6.330, 55.576
6.340, 35.555
6.350, 57.545
6.360, 32.536
6.370, 14.530
6.380, 18.525
6.390, 21.521
6.400, 19.587
6.410, 9.585
6.420, 21.583
6.430, 27.583
6.440, 27.568
6.450, 19.567
6.460, 13.530
6.470, 28.531
6.480, 9.534
6.490, 31.537
6.500, 12.542
6.510, 19.547
6.520, 23.554
6.530, 15.561
6.540, 15.569
6.550, 23.578
6.560, 14.588
6.570, 14.599
6.580, 23.615
6.590, 18.568
6.600, 12.581
6.610, 18.647
6.620, 20.661
6.630, 19.676
6.640, 25.692
6.650, 13.708
6.660, 6.724
6.670, 8.742
6.680, 13.932
6.690, 8.817
6.700, 17.836
6.710, 29.855
6.720, 12.875
6.730, 23.127
6.740, 3.148
6.750, 6.169
6.760, 4.191
6.770, 11.505
6.780, 15.528
6.790, 16.551
6.800, 5.574
6.810, 16.598
6.820, 15.621
6.830, 31.645
6.840, 10.670
6.850, 15.694
6.860, 0.281
6.870, 16.780
6.880, 5.805
6.890, 2.831
6.900, 11.857
6.910, 5.883
6.920, 9.005
6.930, 13.032
6.940, 4.059
6.950, 11.086
6.960, 0.166
6.970, 7.862
6.980, 10.983
6.990, 3.011
7.000, 0.039
7.010, 9.067
7.020, 6.096
7.030, 6.124
7.040, 10.153
7.050, 16.182
7.060, 9.211
7.070, 4.241
7.080, 5.863
7.090, 8.893
7.100, 9.201
7.110, 6.231
7.120, 8.260
7.130, 13.290
7.140, 5.320
7.150, 8.379
7.160, 1.591
7.170, 5.438
7.180, 7.468
7.190, 2.591
7.200, 10.620
7.210, 16.994
7.220, 0.977
7.230, 7.052
7.240, 8.081
7.250, 4.890
7.260, 19.138
7.270, 12.165
7.280, 9.487
7.290, 10.513
7.300, 13.540
7.310, 18.567
7.320, 14.593
7.330, 8.618
7.340, 13.642
7.350, 9.667
7.360, 16.691
7.370, 10.715
7.380, 6.739
7.390, 15.763
7.400, 1.787
7.410, 0.811
7.420, 5.164
7.430, 13.857
7.440, 14.879
7.450, 15.901
7.460, 15.923
7.470, 6.945
7.480, 11.967
7.490, 6.990
7.500, 12.012
7.510, 2.034
7.520, 18.056
7.530, 8.079
7.540, 13.102
7.550, 7.125
7.560, 2.269
7.570, 17.292
7.580, 10.315
7.590, 0.662
7.600, 7.360
7.610, 20.382
7.620, 14.404
7.630, 12.427
7.640, 1.449
7.650, 12.481
7.660, 19.504
7.670, 14.526
7.680, 6.549
7.690, 20.571
7.700, 22.594
7.710, 11.617
7.720, 7.640
7.730, 18.663
7.740, 23.686
7.750, 2.708
7.760, 10.731
7.770, 0.754
7.780, 10.777
7.790, 6.800
7.800, 0.177
7.810, 3.845
7.820, 3.868
7.830, 7.890
7.840, 4.912
7.850, 2.934
7.860, 11.955
7.870, 2.023
7.880, 17.997
7.890, 12.018
7.900, 22.038
7.910, 5.058
7.920, 2.922
7.930, 4.096
7.940, 5.114
7.950, 17.132
7.960, 3.851
7.970, 1.164
7.980, 6.179
7.990, 6.193
8.000, 24.208
8.010, 9.222
8.020, 4.236
8.030, 8.250
8.040, 5.264
8.050, 2.277
8.060, 0.287
8.070, 14.300
8.080, 20.313
8.090, 3.326
8.100, 8.338
8.110, 0.649
8.120, 7.362
8.130, 10.374
8.140, 12.385
8.150, 10.604
8.160, 8.397
8.170, 0.598
8.180, 10.406
8.190, 9.409
8.200, 12.412
8.210, 6.415
8.220, 19.419
8.230, 13.422
8.240, 20.425
8.250, 6.428
8.260, 1.430
8.270, 8.567
8.280, 7.431
8.290, 3.572
8.300, 15.423
8.310, 7.417
8.320, 25.412
8.330, 6.407
8.340, 0.401
8.350, 7.395
8.360, 19.315
8.370, 3.308
8.380, 0.698
8.390, 6.295
8.400, 4.713
8.410, 4.277
8.420, 9.212
8.430, 9.201
8.440, 6.191
8.450, 5.880
8.460, 2.869
8.470, 4.141
8.480, 7.845
8.490, 10.832
8.500, 14.819
8.510, 22.805
8.520, 8.792
8.530, 18.778
8.540, 17.765
8.550, 30.751
8.560, 26.737
8.570, 36.725
8.580, 35.713
8.590, 22.700
8.600, 19.688
8.610, 33.676
8.620, 20.325
8.630, 29.313
8.640, 10.300
8.650, 2.288
8.660, 14.276
8.670, 12.264
8.680, 23.252
8.690, 9.240
8.700, 3.228
8.710, 9.216
8.720, 10.204
8.730, 12.318
8.740, 8.306
8.750, 1.706
8.760, 3.281
8.770, 12.268
8.780, 1.255
8.790, 15.171
8.800, 21.158
8.810, 11.145
8.820, 4.132
8.830, 4.119
8.840, 0.134
8.850, 14.121
8.860, 9.108
8.870, 17.121
8.880, 10.108
8.890, 3.095
8.900, 13.246
8.910, 13.233
8.920, 25.220
8.930, 15.207
8.940, 9.194
8.950, 7.181
8.960, 6.270
8.970, 15.252
8.980, 5.240
8.990, 18.227
9.000, 16.161
9.010, 1.148
9.020, 8.136
9.030, 2.123
9.040, 4.110
9.050, 16.098
9.060, 15.085
9.070, 13.900
9.080, 18.887
9.090, 13.875
9.100, 8.863
9.110, 25.850
9.120, 13.606
9.130, 19.594
9.140, 26.582
9.150, 18.570
9.160, 25.267
9.170, 23.254
9.180, 20.242
9.190, 31.230
9.200, 41.219
9.210, 42.207
9.220, 35.196
9.230, 60.185
9.240, 40.174
9.250, 52.163
9.260, 47.117
9.270, 58.108
9.280, 47.099
9.290, 52.090
9.300, 99.082
9.310, 89.983
9.320, 88.979
9.330, 75.976
9.340, 85.973
9.350, 142.251
9.360, 163.249
9.370, 163.156
9.380, 189.155
9.390, 229.155
9.400, 259.155
9.410, 299.155
9.420, 335.156
9.430, 465.157
9.440, 520.159
9.450, 641.161
9.460, 751.163
9.470, 908.573
9.480, 1058.576
9.490, 1297.300
9.500, 1671.303
9.510, 1766.307
9.520, 1768.311
9.530, 1448.315
9.540, 1114.291
9.550, 804.296
9.560, 501.301
9.570, 353.307
9.580, 245.220
9.590, 208.227
9.600, 126.889
9.610, 116.897
9.620, 107.905
9.630, 98.914
9.640, 82.923
9.650, 85.976
9.660, 58.987
9.670, 56.704
9.680, 59.715
9.690, 54.727
9.700, 44.739
9.710, 46.751
9.720, 53.764
9.730, 50.777
9.740, 63.791
9.750, 23.805
9.760, 66.139
9.770, 31.153
9.780, 59.168
9.790, 57.183
9.800, 84.203
9.810, 90.218
9.820, 77.288
9.830, 80.306
9.840, 118.324
9.850, 77.343
9.860, 72.361
9.870, 45.381
9.880, 51.400
9.890, 25.420
9.900, 8.441
9.910, 11.461
9.920, 3.518
9.930, 7.502
9.940, 15.523
9.950, 18.440
9.960, 7.461
9.970, 4.483
9.980, 9.504
9.990, 7.527
10.000, 14.550
10.010, 21.573
10.020, 10.596
10.030, 1.380
10.040, 3.633
10.050, 17.657
10.060, 1.318
10.070, 5.706
10.080, 8.731
10.090, 4.244
10.100, 6.780
10.110, 9.804
10.120, 0.829
10.130, 3.854
10.140, 4.879
10.150, 3.095
10.160, 17.930
10.170, 6.955
10.180, 7.981
10.190, 12.020
10.200, 7.047
10.210, 23.074
10.220, 23.101
10.230, 3.129
10.240, 2.157
10.250, 4.185
10.260, 11.214
10.270, 9.244
10.280, 11.274
10.290, 5.304
10.300, 12.335
10.310, 10.366
10.320, 5.398
10.330, 14.431
10.340, 16.464
10.350, 17.498
10.360, 20.534
10.370, 14.570
10.380, 44.606
10.390, 32.643
10.400, 47.680
10.410, 48.717
10.420, 67.755
10.430, 97.793
10.440, 86.831
10.450, 104.870
10.460, 104.273
10.470, 102.313
10.480, 121.460
10.490, 188.500
10.500, 252.457
10.510, 239.660
10.520, 421.701
10.530, 503.743
10.540, 687.064
10.550, 893.109
10.560, 958.304
10.570, 865.349
10.580, 717.395
10.590, 515.442
10.600, 300.489
10.610, 183.536
10.620, 136.583
10.630, 71.885
10.640, 65.933
10.650, 30.981
10.660, 35.029
10.670, 24.079
10.680, 21.130
10.690, 34.183
10.700, 18.242
10.710, 22.342
10.720, 10.395
10.730, 6.448
10.740, 6.501
10.750, 21.555
10.760, 10.608
10.770, 13.665
10.780, 3.720
10.790, 13.775
10.800, 1.979
10.810, 33.036
10.820, 3.094
10.830, 12.152
10.840, 0.789
10.850, 14.268
10.860, 6.326
10.870, 14.386
10.880, 9.445
10.890, 7.505
10.900, 2.565
10.910, 3.626
10.920, 0.686
10.930, 3.747
10.940, 3.808
10.950, 5.130
10.960, 6.928
10.970, 7.987
10.980, 9.045
10.990, 0.104
11.000, 8.163
11.010, 0.778
11.020, 5.280
11.030, 2.338
11.040, 4.397
11.050, 5.455
11.060, 4.514
11.070, 3.604
11.080, 16.663
11.090, 14.722
11.100, 4.781
11.110, 8.840
11.120, 11.772
11.130, 25.831
11.140, 0.110
11.150, 3.950
11.160, 5.009
11.170, 15.069
11.180, 5.129
11.190, 8.188
11.200, 6.248
11.210, 6.308
11.220, 13.367
11.230, 11.399
11.240, 19.459
11.250, 8.519
11.260, 4.552
11.270, 6.612
11.280, 11.672
11.290, 0.568
11.300, 11.629
11.310, 17.689
11.320, 7.749
11.330, 7.809
11.340, 11.869
11.350, 6.827
11.360, 11.887
11.370, 6.947
11.380, 0.007
11.390, 5.067
11.400, 6.127
11.410, 4.187
11.420, 5.247
11.430, 3.308
11.440, 19.368
11.450, 0.428
11.460, 16.488
11.470, 21.548
11.480, 16.609
11.490, 5.669
11.500, 18.729
11.510, 14.789
11.520, 5.849
11.530, 0.909
11.540, 13.160
11.550, 13.220
11.560, 16.280
11.570, 10.340
11.580, 1.401
11.590, 8.462
11.600, 7.523
11.610, 2.584
11.620, 1.644
11.630, 11.705
11.640, 6.765
11.650, 5.174
11.660, 17.883
11.670, 1.059
11.680, 12.998
11.690, 13.946
11.700, 1.898
11.710, 7.149
11.720, 15.196
11.730, 3.757
11.740, 2.287
11.750, 1.669
11.760, 5.374
11.770, 14.417
11.780, 5.459
11.790, 10.587
11.800, 7.629
11.810, 11.671
11.820, 3.287
11.830, 3.753
11.840, 13.817
11.850, 10.857
11.860, 11.896
11.870, 1.935
11.880, 7.974
11.890, 1.012
11.900, 0.051
11.910, 22.088
11.920, 18.126
11.930, 5.163
11.940, 7.200
11.950, 19.238
11.960, 1.274
11.970, 33.511
11.980, 19.548
11.990, 1.416
12.000, 3.619
12.010, 12.854
12.020, 6.889
12.030, 3.923
12.040, 15.914
12.050, 18.948
12.060, 10.981
12.070, 9.015
12.080, 24.048
12.090, 11.210
12.100, 13.243
12.110, 24.275
12.120, 13.434
12.130, 12.466
12.140, 9.498
12.150, 4.210
12.160, 16.241
12.170, 17.272
12.180, 6.304
12.190, 14.331
12.200, 5.362
12.210, 20.341
12.220, 2.372
12.230, 8.405
12.240, 18.465
12.250, 5.499
12.260, 0.532
12.270, 13.565
12.280, 15.597
12.290, 17.630
12.300, 18.662
12.310, 8.694
12.320, 22.726
12.330, 36.758
12.340, 19.772
12.350, 10.804
12.360, 28.835
12.370, 15.866
12.380, 10.898
12.390, 27.928
12.400, 40.959
12.410, 30.990
12.420, 35.020
12.430, 41.050
12.440, 50.080
12.450, 66.110
12.460, 71.139
12.470, 83.169
12.480, 122.198
12.490, 163.228
12.500, 185.263
12.510, 217.292
12.520, 260.322
12.530, 244.351
12.540, 228.380
12.550, 167.409
12.560, 142.437
12.570, 116.466
12.580, 76.481
12.590, 47.509
12.600, 30.537
12.610, 16.610
12.620, 30.637
12.630, 28.665
12.640, 17.692
12.650, 23.719
12.660, 23.745
12.670, 19.772
12.680, 9.799
12.690, 12.825
12.700, 18.851
12.710, 3.877
12.720, 15.902
12.730, 2.072
12.740, 16.951
12.750, 13.975
12.760, 3.998
12.770, 16.306
12.780, 7.329
12.790, 10.351
12.800, 9.373
12.810, 9.395
12.820, 22.417
12.830, 18.439
12.840, 14.460
12.850, 4.207
12.860, 18.228
12.870, 16.142
12.880, 14.162
12.890, 15.265
12.900, 7.123
12.910, 5.143
12.920, 12.163
12.930, 9.903
12.940, 18.922
12.950, 8.794
12.960, 2.813
12.970, 7.832
12.980, 1.149
12.990, 3.869
13.000, 9.887
13.010, 3.905
13.020, 8.668
13.030, 0.315
13.040, 13.702
13.050, 5.719
13.060, 10.736
13.070, 18.753
13.080, 11.770
13.090, 4.779
13.100, 7.748
13.110, 1.764
13.120, 11.781
13.130, 25.797
13.140, 10.813
13.150, 6.829
13.160, 3.158
13.170, 11.856
13.180, 1.870
13.190, 7.737
13.200, 3.249
13.210, 17.764
13.220, 14.776
13.230, 7.788
13.240, 13.800
13.250, 1.813
13.260, 2.825
13.270, 16.838
13.280, 2.149
13.290, 4.862
13.300, 6.874
13.310, 2.115
13.320, 20.895
13.330, 17.905
13.340, 6.915
13.350, 7.927
13.360, 2.938
13.370, 7.067
13.380, 8.128
13.390, 18.140
13.400, 4.152
13.410, 17.163
13.420, 7.723
13.430, 0.264
13.440, 23.969
13.450, 9.981
13.460, 3.963
13.470, 17.976
13.480, 15.991
13.490, 14.005
13.500, 12.019
13.510, 15.035
13.520, 8.051
13.530, 12.067
13.540, 7.083
13.550, 15.098
13.560, 14.114
13.570, 15.129
13.580, 9.145
13.590, 7.160
13.600, 5.175
13.610, 16.191
13.620, 15.206
13.630, 4.221
13.640, 3.236
13.650, 8.253
13.660, 11.268
13.670, 17.282
13.680, 8.297
13.690, 0.312
13.700, 6.326
13.710, 4.340
13.720, 2.355
13.730, 7.369
13.740, 1.383
13.750, 15.397
13.760, 3.411
13.770, 8.425
13.780, 10.439
13.790, 11.453
13.800, 0.534
13.810, 16.480
13.820, 8.493
13.830, 9.543
13.840, 18.556
13.850, 15.569
13.860, 12.584
13.870, 15.597
13.880, 3.610
13.890, 2.622
13.900, 9.635
13.910, 5.648
13.920, 15.660
13.930, 13.481
13.940, 23.494
13.950, 9.506
13.960, 4.482
13.970, 10.528
13.980, 17.538
13.990, 5.548
14.000, 14.558
14.010, 7.568
14.020, 16.577
14.030, 16.587
14.040, 1.403
14.050, 7.607
14.060, 1.617
14.070, 8.628
14.080, 11.639
14.090, 5.653
14.100, 4.668
14.110, 8.684
14.120, 9.699
14.130, 19.715
14.140, 0.732
14.150, 10.748
14.160, 9.765
14.170, 10.782
14.180, 11.714
14.190, 11.730
14.200, 8.747
14.210, 14.764
14.220, 20.782
14.230, 11.774
14.240, 1.792
14.250, 1.810
14.260, 1.828
14.270, 7.846
14.280, 8.863
14.290, 21.881
14.300, 7.899
14.310, 3.917
14.320, 14.936
14.330, 21.955
14.340, 17.976
14.350, 17.001
14.360, 8.821
14.370, 7.842
14.380, 2.862
14.390, 10.883
14.400, 6.703
14.410, 17.724
14.420, 6.746
14.430, 3.767
14.440, 10.968
14.450, 10.989
14.460, 6.010
14.470, 12.031
14.480, 9.922
14.490, 16.944
14.500, 13.965
14.510, 10.859
14.520, 6.880
14.530, 10.902
14.540, 9.924
14.550, 20.946
14.560, 2.031
14.570, 0.903
14.580, 5.118
14.590, 15.138
14.600, 13.159
14.610, 8.821
14.620, 6.573
14.630, 3.439
14.640, 12.575
14.650, 24.588
14.660, 12.602
14.670, 24.063
14.680, 14.076
14.690, 11.090
14.700, 14.488
14.710, 11.501
14.720, 11.515
14.730, 7.528
14.740, 12.542
14.750, 6.555
14.760, 22.569
14.770, 13.582
14.780, 15.595
14.790, 4.608
14.800, 2.621
14.810, 13.634
14.820, 11.647
14.830, 10.660
14.840, 1.673
14.850, 20.686
14.860, 10.698
14.870, 16.711
14.880, 13.724
14.890, 8.732
14.900, 13.745
14.910, 13.757
14.920, 17.770
14.930, 13.783
14.940, 4.796
14.950, 24.808
14.960, 5.821
14.970, 2.848
14.980, 22.861
14.990, 19.874
15.000, 16.841
15.010, 7.854
15.020, 0.134
15.030, 13.878
15.040, 14.890
15.050, 1.902
15.060, 8.913
15.070, 18.925
15.080, 8.936
15.090, 6.948
15.100, 16.959
15.110, 14.970
15.120, 10.981
15.130, 2.993
15.140, 7.005
15.150, 15.035
15.160, 15.761
15.170, 9.772
15.180, 7.786
15.190, 10.799
15.200, 9.813
15.210, 5.826
15.220, 23.839
15.230, 10.852
15.240, 13.779
15.250, 5.792
15.260, 7.805
15.270, 23.817
15.280, 9.830
15.290, 10.843
15.300, 10.855
15.310, 10.868
15.320, 2.880
15.330, 5.897
15.340, 8.907
15.350, 10.919
15.360, 15.931
15.370, 4.943
15.380, 10.955
15.390, 2.968
15.400, 11.980
15.410, 14.993
15.420, 6.005
15.430, 17.017
15.440, 12.029
15.450, 9.041
15.460, 8.053
15.470, 10.065
15.480, 5.077
15.490, 7.088
15.500, 4.100
15.510, 11.378
15.520, 13.389
15.530, 16.731
15.540, 1.742
15.550, 6.753
15.560, 11.765
15.570, 15.783
15.580, 8.795
15.590, 11.807
15.600, 9.819
15.610, 10.832
15.620, 20.844
15.630, 2.144
15.640, 11.866
15.650, 8.876
15.660, 12.887
15.670, 3.897
15.680, 20.908
15.690, 16.920
15.700, 8.932
15.710, 2.944
15.720, 18.167
15.730, 10.179
15.740, 13.190
15.750, 10.202
15.760, 0.905
15.770, 16.057
15.780, 27.067
15.790, 12.076
15.800, 10.086
15.810, 5.452
15.820, 6.564
15.830, 11.350
15.840, 12.355
15.850, 8.361
15.860, 6.634
15.870, 3.368
15.880, 8.369
15.890, 5.630
15.900, 12.368
15.910, 13.365
15.920, 7.365
15.930, 9.362
15.940, 10.359
15.950, 25.357
15.960, 21.354
15.970, 18.352
15.980, 5.349
15.990, 13.346
16.000, 3.344
16.010, 13.341
16.020, 5.337
16.030, 18.373
16.040, 19.367
16.050, 7.364
16.060, 7.360
16.070, 5.356
16.080, 10.459
16.090, 4.455
16.100, 7.451
16.110, 12.447
16.120, 2.445
16.130, 11.441
16.140, 13.436
16.150, 7.435
16.160, 0.485
16.170, 13.479
16.180, 19.473
16.190, 12.468
16.200, 12.463
16.210, 7.457
16.220, 6.415
16.230, 13.410
16.240, 4.404
16.250, 6.396
16.260, 11.390
16.270, 9.384
16.280, 13.377
16.290, 17.371
16.300, 15.364
16.310, 18.357
16.320, 19.350
16.330, 11.343
16.340, 0.335
16.350, 17.327
16.360, 6.321
16.370, 4.774
16.380, 4.767
16.390, 6.760
16.400, 3.752
16.410, 23.744
16.420, 14.736
16.430, 1.728
16.440, 9.720
16.450, 12.712
16.460, 7.704
16.470, 7.695
16.480, 18.686
16.490, 3.677
16.500, 15.668
16.510, 14.659
16.520, 1.649
16.530, 9.639
16.540, 8.629
16.550, 6.619
16.560, 10.609
16.570, 17.598
16.580, 14.707
16.590, 12.697
16.600, 4.686
16.610, 17.674
16.620, 11.663
16.630, 4.651
16.640, 10.644
16.650, 8.632
16.660, 8.619
16.670, 9.607
16.680, 9.594
16.690, 7.581
16.700, 3.432
16.710, 10.552
16.720, 4.464
16.730, 10.517
16.740, 7.493
16.750, 15.708
16.760, 1.688
16.770, 8.668
16.780, 5.648
16.790, 3.628
16.800, 6.607
16.810, 22.587
16.820, 23.566
16.830, 12.370
16.840, 13.349
16.850, 4.454
16.860, 17.432
16.870, 11.410
16.880, 25.708
16.890, 8.687
16.900, 22.665
16.910, 2.356
16.920, 7.620
16.930, 20.596
16.940, 19.572
16.950, 21.548
16.960, 2.416
16.970, 16.392
16.980, 21.368
16.990, 8.344
17.000, 16.319
17.010, 0.920
17.020, 14.897
17.030, 11.875
17.040, 7.853
17.050, 12.831
17.060, 14.362
17.070, 12.340
17.080, 13.317
17.090, 10.911
17.100, 19.888
17.110, 0.865
17.120, 6.842
17.130, 14.931
17.140, 9.908
17.150, 7.884
17.160, 11.978
17.170, 18.954
17.180, 15.930
17.190, 15.906
17.200, 33.882
17.210, 23.858
17.220, 0.166
17.230, 5.809
17.240, 1.853
17.250, 2.828
17.260, 8.802
17.270, 1.223
17.280, 5.751
17.290, 8.724
17.300, 3.698
17.310, 0.671
17.320, 6.644
17.330, 8.617
17.340, 0.590
17.350, 0.437
17.360, 13.520
17.370, 17.492
17.380, 21.464
17.390, 29.595
17.400, 23.567
17.410, 27.539
17.420, 19.511
17.430, 14.482
17.440, 32.454
17.450, 54.425
17.460, 60.397
17.470, 75.368
17.480, 51.339
17.490, 49.311
17.500, 45.282
17.510, 55.253
17.520, 38.224
17.530, 39.195
17.540, 10.148
17.550, 23.118
17.560, 6.911
17.570, 11.056
17.580, 14.022
17.590, 9.989
17.600, 14.955
17.610, 24.922
17.620, 10.888
17.630, 17.850
17.640, 17.816
17.650, 9.782
17.660, 10.748
17.670, 0.714
17.680, 6.680
17.690, 7.646
17.700, 13.613
17.710, 10.579
17.720, 11.541
17.730, 10.508
17.740, 16.474
17.750, 15.441
17.760, 12.407
17.770, 1.627
17.780, 0.339
17.790, 6.304
17.800, 7.269
17.810, 9.234
17.820, 4.199
17.830, 0.164
17.840, 4.129
17.850, 7.094
17.860, 8.059
17.870, 8.023
17.880, 24.990
17.890, 6.956
17.900, 5.656
17.910, 16.622
17.920, 8.258
17.930, 6.225
17.940, 3.808
17.950, 10.157
17.960, 13.117
17.970, 9.082
17.980, 9.048
17.990, 7.013
18.000, 2.978
18.010, 4.944
18.020, 0.090
18.030, 1.877
18.040, 2.156
18.050, 5.811
18.060, 8.777
18.070, 5.257
18.080, 7.954
18.090, 6.917
18.100, 7.881
18.110, 9.633
18.120, 12.597
18.130, 19.561
18.140, 12.525
18.150, 16.489
18.160, 8.452
18.170, 15.416
18.180, 26.381
18.190, 11.346
18.200, 23.311
18.210, 18.268
18.220, 24.235
18.230, 18.202
18.240, 28.169
18.250, 9.137
18.260, 22.106
18.270, 29.075
18.280, 8.044
18.290, 15.015
18.300, 2.986
18.310, 5.955
18.320, 2.073
18.330, 9.897
18.340, 9.867
18.350, 2.162
18.360, 13.807
18.370, 7.777
18.380, 9.747
18.390, 3.717
18.400, 9.687
18.410, 5.657
18.420, 9.588
18.430, 1.442
18.440, 10.528
18.450, 8.498
18.460, 6.468
18.470, 9.331
18.480, 6.302
18.490, 0.273
18.500, 9.245
18.510, 4.214
18.520, 3.187
18.530, 17.159
18.540, 16.128
18.550, 11.046
18.560, 8.019
18.570, 15.994
18.580, 3.031
18.590, 8.943
18.600, 9.917
18.610, 8.891
18.620, 9.865
18.630, 18.839
18.640, 18.814
18.650, 18.788
18.660, 27.763
18.670, 33.738
18.680, 44.713
18.690, 32.689
18.700, 37.664
18.710, 32.640
18.720, 49.615
18.730, 38.591
18.740, 50.567
18.750, 45.544
18.760, 69.060
18.770, 73.037
18.780, 74.013
18.790, 96.991
18.800, 106.968
18.810, 97.945
18.820, 128.923
18.830, 63.901
18.840, 75.879
18.850, 76.857
18.860, 50.836
18.870, 56.815
18.880, 32.793
18.890, 29.954
18.900, 22.934
18.910, 17.913
18.920, 32.893
18.930, 38.873
18.940, 30.853
18.950, 28.833
18.960, 48.814
18.970, 35.674
18.980, 54.655
18.990, 69.644
19.000, 85.625
19.010, 119.607
19.020, 154.589
19.030, 152.566
19.040, 116.548
19.050, 97.530
19.060, 75.513
19.070, 93.858
19.080, 79.842
19.090, 66.829
19.100, 41.866
19.110, 47.854
19.120, 23.950
19.130, 26.937
19.140, 21.690
19.150, 3.677
19.160, 12.664
19.170, 28.652
19.180, 13.640
19.190, 19.628
19.200, 9.616
19.210, 9.772
19.220, 8.755
19.230, 6.790
19.240, 4.653
19.250, 18.642
19.260, 26.632
19.270, 4.698
19.280, 15.290
19.290, 13.278
19.300, 0.266
19.310, 4.256
19.320, 10.245
19.330, 21.235
19.340, 1.225
19.350, 5.216
19.360, 10.206
19.370, 15.197
19.380, 13.290
19.390, 27.281
19.400, 30.273
19.410, 32.264
19.420, 39.256
19.430, 28.249
19.440, 45.241
19.450, 15.234
19.460, 35.227
19.470, 30.220
19.480, 43.213
19.490, 33.207
19.500, 26.201
19.510, 33.195
19.520, 36.077
19.530, 43.071
19.540, 29.066
19.550, 28.974
19.560, 21.969
19.570, 17.965
19.580, 32.961
19.590, 14.958
19.600, 30.955
19.610, 23.952
19.620, 26.950
19.630, 35.879
19.640, 22.877
19.650, 33.875
19.660, 32.873
19.670, 36.872
19.680, 70.256
19.690, 59.256
19.700, 58.256
19.710, 50.257
19.720, 42.258
19.730, 46.321
19.740, 25.322
19.750, 47.324
19.760, 25.699
19.770, 13.701
19.780, 18.543
19.790, 31.546
19.800, 19.551
19.810, 15.556
19.820, 12.561
19.830, 11.567
19.840, 14.572
19.850, 21.578
19.860, 9.584
19.870, 17.590
19.880, 13.597
19.890, 13.603
19.900, 24.610
19.910, 23.617
19.920, 17.624
19.930, 0.631
19.940, 12.639
19.950, 7.646
19.960, 12.656
19.970, 16.666
19.980, 4.676
19.990, 19.687
20.000, 6.697
20.010, 12.708
20.020, 9.718
20.030, 7.729
20.040, 3.740
20.050, 12.752
20.060, 15.763
20.070, 11.775
20.080, 3.213
20.090, 8.797
20.100, 7.808
20.110, 14.819
20.120, 0.830
20.130, 4.841
20.140, 7.853
20.150, 18.865
20.160, 12.877
20.170, 4.889
20.180, 0.098
20.190, 14.915
20.200, 20.928
20.210, 5.941
20.220, 11.954
20.230, 0.967
20.240, 10.981
20.250, 9.995
20.260, 5.991
20.270, 5.020
20.280, 0.031
20.290, 0.958
20.300, 0.054
20.310, 1.934
20.320, 10.077
20.330, 2.088
20.340, 15.101
20.350, 11.113
20.360, 8.126
20.370, 10.139
20.380, 6.152
20.390, 8.165
20.400, 2.822
20.410, 7.191
20.420, 0.797
20.430, 5.215
20.440, 12.229
20.450, 14.242
20.460, 0.255
20.470, 7.023
20.480, 10.038
20.490, 6.052
20.500, 4.067
20.510, 12.083
20.520, 11.098
20.530, 8.113
20.540, 6.129
20.550, 10.144
20.560, 1.160
20.570, 1.824
20.580, 14.191
20.590, 13.206
20.600, 11.222
20.610, 7.237
20.620, 20.253
20.630, 8.269
20.640, 0.284
20.650, 2.300
20.660, 6.317
20.670, 10.372
20.680, 9.389
20.690, 6.405
20.700, 18.422
20.710, 4.438
20.720, 20.455
20.730, 14.506
20.740, 0.476
20.750, 13.542
20.760, 6.560
20.770, 11.734
20.780, 8.752
20.790, 4.770
20.800, 5.788
20.810, 5.806
20.820, 5.825
20.830, 0.844
20.840, 9.863
20.850, 4.882
20.860, 4.901
20.870, 6.080
20.880, 5.936
20.890, 21.107
20.900, 10.124
20.910, 18.140
20.920, 0.843
20.930, 18.173
20.940, 7.189
20.950, 5.795
20.960, 8.218
20.970, 12.231
20.980, 15.244
20.990, 6.795
21.000, 4.809
21.010, 10.823
21.020, 8.838
21.030, 8.853
21.040, 10.868
21.050, 6.882
21.060, 13.897
21.070, 17.912
21.080, 34.927
21.090, 34.942
21.100, 45.957
21.110, 47.972
21.120, 82.987
21.130, 92.002
21.140, 109.017
21.150, 124.032
21.160, 97.047
21.170, 85.062
21.180, 50.077
21.190, 64.092
21.200, 40.107
21.210, 56.122
21.220, 44.137
21.230, 26.152
21.240, 34.176
21.250, 16.191
21.260, 10.206
21.270, 3.221
21.280, 12.056
21.290, 19.072
21.300, 4.146
21.310, 10.162
21.320, 19.178
21.330, 12.195
21.340, 23.211
21.350, 21.228
21.360, 9.245
21.370, 8.264
21.380, 6.274
21.390, 20.292
21.400, 7.309
21.410, 20.327
21.420, 13.344
21.430, 11.361
21.440, 12.379
21.450, 15.397
21.460, 12.052
21.470, 28.070
21.480, 15.083
21.490, 9.257
21.500, 11.292
21.510, 11.202
21.520, 3.222
21.530, 15.241
21.540, 3.260
21.550, 18.279
21.560, 11.298
21.570, 13.317
21.580, 8.336
21.590, 11.356
21.600, 14.283
21.610, 10.302
21.620, 5.275
21.630, 0.294
21.640, 9.312
21.650, 2.331
21.660, 16.350
21.670, 17.370
21.680, 2.390
21.690, 13.410
21.700, 3.430
21.710, 8.449
21.720, 8.469
21.730, 14.489
21.740, 5.509
21.750, 8.528
21.760, 13.548
21.770, 13.465
21.780, 13.485
21.790, 10.504
21.800, 15.524
21.810, 22.543
21.820, 12.563
21.830, 11.582
21.840, 8.601
21.850, 8.621
21.860, 0.360
21.870, 13.659
21.880, 1.677
21.890, 4.696
21.900, 15.715
21.910, 17.733
21.920, 0.248
21.930, 9.770
21.940, 0.758
21.950, 3.776
21.960, 2.206
21.970, 7.811
21.980, 16.828
21.990, 15.844
22.000, 19.861
22.010, 13.887
22.020, 12.904
22.030, 14.920
22.040, 4.937
22.050, 19.953
22.060, 4.970
22.070, 19.654
22.080, 2.329
22.090, 5.687
22.100, 8.703
22.110, 17.718
22.120, 17.672
22.130, 20.688
22.140, 20.703
22.150, 2.346
22.160, 8.362
22.170, 9.378
22.180, 8.606
22.190, 12.405
22.200, 6.608
22.210, 14.619
22.220, 3.630
22.230, 9.642
22.240, 7.653
22.250, 9.665
22.260, 9.676
22.270, 18.696
22.280, 5.708
22.290, 4.719
22.300, 18.730
22.310, 18.742
22.320, 14.753
22.330, 10.765
22.340, 4.777
22.350, 5.789
22.360, 7.801
22.370, 9.812
22.380, 10.824
22.390, 7.836
22.400, 15.847
22.410, 9.859
22.420, 7.870
22.430, 0.118
22.440, 3.894
22.450, 5.906
22.460, 20.918
22.470, 12.224
22.480, 13.237
22.490, 0.751
22.500, 19.261
22.510, 8.272
22.520, 1.330
22.530, 1.341
22.540, 21.353
22.550, 4.599
22.560, 0.610
22.570, 16.621
22.580, 11.632
22.590, 7.643
22.600, 13.654
22.610, 2.665
22.620, 13.676
22.630, 21.686
22.640, 0.697
22.650, 2.707
22.660, 10.727
22.670, 3.739
22.680, 2.824
22.690, 0.186
22.700, 19.196
22.710, 1.206
22.720, 10.216
22.730, 3.226
22.740, 7.236
22.750, 9.246
22.760, 6.255
22.770, 10.265
22.780, 1.274
22.790, 0.717
22.800, 19.293
22.810, 2.302
22.820, 16.312
22.830, 6.319
22.840, 9.328
22.850, 3.337
22.860, 13.346
22.870, 8.354
22.880, 19.362
22.890, 3.371
22.900, 11.380
22.910, 12.388
22.920, 12.396
22.930, 21.403
22.940, 22.411
22.950, 37.418
22.960, 39.426
22.970, 43.433
22.980, 23.441
22.990, 21.448
23.000, 25.456
23.010, 18.463
23.020, 27.470
23.030, 14.477
23.040, 1.484
23.050, 18.491
23.060, 17.458
23.070, 14.465
23.080, 8.471
23.090, 12.491
23.100, 6.498
23.110, 22.505
23.120, 14.478
23.130, 7.485
23.140, 12.492
23.150, 14.499
23.160, 7.349
23.170, 10.427
23.180, 10.433
23.190, 10.439
23.200, 0.445
23.210, 3.451
23.220, 11.457
23.230, 21.464
23.240, 8.470
23.250, 15.677
23.260, 0.302
23.270, 3.705
23.280, 5.557
23.290, 2.563
23.300, 11.570
23.310, 8.576
23.320, 13.582
23.330, 14.589
23.340, 1.676
23.350, 10.683
23.360, 6.691
23.370, 2.698
23.380, 11.168
23.390, 2.824
23.400, 10.181
23.410, 8.186
23.420, 2.348
23.430, 7.353
23.440, 23.357
23.450, 4.362
23.460, 0.367
23.470, 12.371
23.480, 28.375
23.490, 14.380
23.500, 7.384
23.510, 9.552
23.520, 2.556
23.530, 15.559
23.540, 10.563
23.550, 17.608
23.560, 4.612
23.570, 10.615
23.580, 3.618
23.590, 13.621
23.600, 8.624
23.610, 18.626
23.620, 2.629
23.630, 2.797
23.640, 13.799
23.650, 9.801
23.660, 4.197
23.670, 13.803
23.680, 8.802
23.690, 8.743
23.700, 18.742
23.710, 0.259
23.720, 9.739
23.730, 8.739
23.740, 3.262
23.750, 17.735
23.760, 6.731
23.770, 7.727
23.780, 9.727
23.790, 16.726
23.800, 6.725
23.810, 9.724
23.820, 7.723
23.830, 12.721
23.840, 8.719
23.850, 0.717
23.860, 9.715
23.870, 6.287
23.880, 11.501
23.890, 1.476
23.900, 5.470
23.910, 8.463
23.920, 6.457
23.930, 7.451
23.940, 7.444
23.950, 6.438
23.960, 8.431
23.970, 16.424
23.980, 22.416
23.990, 15.334
24.000, 10.327
24.010, 1.319
24.020, 11.312
24.030, 22.304
24.040, 16.296
24.050, 4.288
24.060, 8.280
24.070, 9.272
24.080, 16.264
24.090, 1.256
24.100, 13.247
24.110, 9.239
24.120, 2.230
24.130, 12.221
24.140, 7.212
24.150, 6.203
24.160, 10.194
24.170, 9.185
24.180, 15.224
24.190, 12.215
24.200, 3.205
24.210, 8.195
24.220, 25.185
24.230, 9.175
24.240, 9.165
24.250, 5.154
24.260, 9.144
24.270, 11.134
24.280, 0.124
24.290, 8.363
24.300, 4.353
24.310, 14.342
24.320, 16.331
24.330, 11.321
24.340, 6.310
24.350, 9.300
24.360, 0.710
24.370, 7.279
24.380, 11.268
24.390, 11.257
24.400, 10.236
24.410, 14.225
24.420, 1.214
24.430, 19.202
24.440, 2.809
24.450, 0.326
24.460, 8.261
24.470, 6.247
24.480, 13.234
24.490, 8.221
24.500, 8.207
24.510, 25.194
24.520, 12.180
24.530, 0.834
24.540, 7.151
24.550, 14.136
24.560, 3.121
24.570, 4.106
24.580, 7.093
24.590, 14.888
24.600, 16.876
24.610, 2.135
24.620, 6.852
24.630, 22.839
24.640, 10.826
24.650, 9.812
24.660, 12.790
24.670, 3.777
24.680, 11.765
24.690, 4.752
24.700, 2.261
24.710, 7.724
24.720, 5.709
24.730, 6.694
24.740, 0.321
24.750, 6.664
24.760, 15.648
24.770, 11.632
24.780, 22.616
24.790, 14.600
24.800, 9.584
24.810, 11.568
24.820, 2.448
24.830, 1.534
24.840, 22.516
24.850, 10.498
24.860, 9.185
24.870, 3.167
24.880, 10.149
24.890, 8.130
24.900, 11.112
24.910, 15.048
24.920, 11.365
24.930, 11.346
24.940, 3.093
24.950, 18.075
24.960, 10.056
24.970, 2.629
24.980, 19.610
24.990, 7.591
25.000, 18.604
25.010, 28.585
25.020, 31.565
25.030, 23.546
25.040, 19.526
25.050, 34.498
25.060, 26.478
25.070, 32.034
25.080, 42.014
25.090, 53.995
25.100, 72.975
25.110, 90.956
25.120, 117.937
25.130, 141.917
25.140, 143.897
25.150, 115.880
25.160, 85.862
25.170, 84.844
25.180, 92.827
25.190, 88.810
25.200, 64.793
25.210, 64.775
25.220, 50.758
25.230, 52.741
25.240, 22.724
25.250, 30.707
25.260, 14.689
25.270, 6.672
25.280, 13.654
25.290, 9.636
25.300, 12.618
25.310, 17.600
25.320, 21.583
25.330, 13.565
25.340, 21.547
25.350, 7.529
25.360, 14.511
25.370, 0.507
25.380, 8.474
25.390, 10.455
25.400, 18.436
25.410, 12.418
25.420, 14.399
25.430, 12.381
25.440, 17.372
25.450, 2.354
25.460, 19.336
25.470, 19.318
25.480, 3.713
25.490, 1.267
25.500, 15.247
25.510, 13.227
25.520, 8.349
25.530, 18.329
25.540, 17.309
25.550, 13.289
25.560, 13.197
25.570, 14.176
25.580, 20.156
25.590, 8.135
25.600, 17.115
25.610, 7.095
25.620, 9.073
25.630, 4.052
25.640, 2.171
25.650, 12.793
25.660, 5.771
25.670, 7.750
25.680, 16.728
25.690, 12.748
25.700, 14.726
25.710, 0.705
25.720, 24.683
25.730, 24.580
25.740, 9.558
25.750, 16.536
25.760, 6.514
25.770, 9.492
25.780, 12.470
25.790, 19.814
25.800, 23.793
25.810, 9.670
25.820, 30.648
25.830, 17.627
25.840, 22.605
25.850, 7.584
25.860, 15.746
25.870, 37.724
25.880, 23.703
25.890, 22.682
25.900, 1.496
25.910, 8.475
25.920, 3.453
25.930, 15.432
25.940, 5.368
25.950, 3.347
25.960, 19.325
25.970, 17.303
25.980, 10.282
25.990, 9.260
26.000, 5.239
26.010, 14.217
26.020, 9.020
26.030, 5.999
26.040, 12.977
26.050, 4.956
26.060, 5.935
26.070, 11.915
26.080, 10.895
26.090, 15.874
26.100, 9.854
26.110, 5.166
26.120, 9.811
26.130, 5.788
26.140, 3.766
26.150, 19.744
26.160, 9.278
26.170, 9.695
26.180, 18.668
26.190, 0.359
26.200, 10.614
26.210, 4.586
26.220, 3.559
26.230, 14.532
26.240, 5.505
26.250, 6.478
26.260, 5.450
26.270, 12.425
26.280, 7.400
26.290, 15.375
26.300, 11.349
26.310, 15.324
26.320, 19.299
26.330, 17.274
26.340, 31.691
26.350, 49.738
26.360, 71.713
26.370, 78.688
26.380, 60.794
26.390, 56.769
26.400, 45.744
26.410, 33.719
26.420, 41.694
26.430, 42.669
26.440, 52.644
26.450, 47.619
26.460, 24.594
26.470, 22.569
26.480, 24.545
26.490, 7.520
26.500, 13.495
26.510, 13.470
26.520, 14.445
26.530, 4.421
26.540, 8.396
26.550, 2.371
26.560, 23.347
26.570, 1.273
26.580, 1.249
26.590, 18.224
26.600, 8.283
26.610, 3.259
26.620, 7.235
26.630, 0.210
26.640, 2.186
26.650, 7.430
26.660, 7.406
26.670, 10.382
26.680, 3.107
26.690, 1.083
26.700, 13.059
26.710, 1.965
26.720, 3.010
26.730, 5.985
26.740, 1.960
26.750, 6.935
26.760, 7.911
26.770, 6.886
26.780, 11.862
26.790, 6.930
26.800, 12.906
26.810, 12.881
26.820, 8.857
26.830, 6.833
26.840, 11.661
26.850, 9.638
26.860, 2.615
26.870, 6.593
26.880, 0.430
26.890, 8.547
26.900, 13.524
26.910, 0.502
26.920, 28.479
26.930, 7.457
26.940, 3.435
26.950, 8.413
26.960, 11.391
26.970, 16.369
26.980, 5.652
26.990, 3.323
27.000, 0.701
27.010, 17.276
27.020, 11.253
27.030, 15.231
27.040, 5.209
27.050, 2.772
27.060, 3.205
27.070, 5.183
27.080, 13.161
27.090, 16.139
27.100, 20.121
27.110, 8.100
27.120, 10.079
27.130, 2.058
27.140, 20.038
27.150, 8.018
27.160, 26.998
27.170, 17.978
27.180, 35.958
27.190, 57.938
27.200, 90.919
27.210, 88.899
27.220, 117.881
27.230, 109.862
27.240, 168.844
27.250, 176.826
27.260, 176.808
27.270, 134.790
27.280, 102.772
27.290, 92.755
27.300, 99.737
27.310, 102.384
27.320, 97.367
27.330, 71.350
27.340, 57.333
27.350, 42.316
27.360, 17.707
27.370, 18.691
27.380, 10.675
27.390, 11.626
27.400, 18.611
27.410, 3.595
27.420, 3.579
27.430, 10.564
27.440, 12.549
27.450, 6.535
27.460, 7.522
27.470, 6.510
27.480, 14.497
27.490, 9.485
27.500, 20.473
27.510, 0.461
27.520, 16.449
27.530, 7.562
27.540, 1.577
27.550, 5.409
27.560, 4.394
27.570, 2.621
27.580, 11.364
27.590, 1.348
27.600, 4.333
27.610, 5.318
27.620, 7.303
27.630, 10.289
27.640, 11.274
27.650, 12.260
27.660, 14.246
27.670, 8.233
27.680, 5.219
27.690, 10.206
27.700, 10.193
27.710, 4.183
27.720, 11.173
27.730, 9.163
27.740, 20.153
27.750, 15.145
27.760, 5.137
27.770, 12.130
27.780, 0.122
27.790, 1.885
27.800, 6.108
27.810, 6.100
27.820, 5.093
27.830, 8.076
27.840, 4.930
27.850, 13.061
27.860, 6.053
27.870, 19.045
27.880, 18.038
27.890, 10.031
27.900, 4.025
27.910, 3.876
27.920, 13.870
27.930, 13.864
27.940, 4.858
27.950, 11.853
27.960, 5.848
27.970, 7.843
27.980, 2.161
27.990, 18.833
28.000, 11.828
28.010, 5.824
28.020, 14.819
28.030, 5.815
28.040, 2.811
28.050, 12.808
28.060, 22.805
28.070, 5.803
28.080, 3.758
28.090, 15.756
28.100, 2.786
28.110, 8.784
28.120, 3.783
28.130, 9.781
28.140, 3.780
28.150, 5.780
28.160, 8.779
28.170, 14.779
28.180, 1.414
28.190, 20.414
28.200, 20.751
28.210, 4.752
28.220, 13.753
28.230, 9.756
28.240, 1.241
28.250, 7.884
28.260, 23.888
28.270, 11.943
28.280, 13.947
28.290, 0.049
28.300, 17.955
28.310, 21.959
28.320, 14.964
28.330, 13.969
28.340, 17.974
28.350, 11.979
28.360, 12.985
28.370, 7.991
28.380, 15.997
28.390, 13.003
28.400, 10.009
28.410, 35.017
28.420, 30.024
28.430, 22.032
28.440, 51.040
28.450, 39.048
28.460, 41.056
28.470, 56.065
28.480, 51.073
28.490, 80.082
28.500, 69.091
28.510, 76.102
28.520, 96.113
28.530, 145.124
28.540, 169.136
28.550, 235.149
28.560, 300.164
28.570, 426.179
28.580, 596.194
28.590, 813.210
28.600, 912.226
28.610, 935.243
28.620, 899.260
28.630, 737.277
28.640, 782.529
28.650, 865.718
28.660, 1083.735
28.670, 1288.753
28.680, 1179.772
28.690, 1050.790
28.700, 744.809
28.710, 564.828
28.720, 494.945
28.730, 501.557
28.740, 543.505
28.750, 463.524
28.760, 410.544
28.770, 306.433
28.780, 198.453
28.790, 158.474
28.800, 116.494
28.810, 110.515
28.820, 87.536
28.830, 79.557
28.840, 73.579
28.850, 60.600
28.860, 60.623
28.870, 50.645
28.880, 45.667
28.890, 47.690
28.900, 30.348
28.910, 36.371
28.920, 31.394
28.930, 47.418
28.940, 27.696
28.950, 17.719
28.960, 35.743
28.970, 19.767
28.980, 18.791
28.990, 4.731
29.000, 8.815
29.010, 27.839
29.020, 31.864
29.030, 20.889
29.040, 9.645
29.050, 16.670
29.060, 12.696
29.070, 7.721
29.080, 12.746
29.090, 12.772
29.100, 15.798
29.110, 10.824
29.120, 17.851
29.130, 3.878
29.140, 8.905
29.150, 5.932
29.160, 14.959
29.170, 13.986
29.180, 8.922
29.190, 12.949
29.200, 17.977
29.210, 16.005
29.220, 7.033
29.230, 11.061
29.240, 6.089
29.250, 11.117
29.260, 3.146
29.270, 8.175
29.280, 8.203
29.290, 0.768
29.300, 2.261
29.310, 15.290
29.320, 2.319
29.330, 6.348
29.340, 3.377
29.350, 8.407
29.360, 5.436
29.370, 17.466
29.380, 6.497
29.390, 6.472
29.400, 13.648
29.410, 18.676
29.420, 15.108
29.430, 3.136
29.440, 4.876
29.450, 12.150
29.460, 0.823
29.470, 16.204
29.480, 4.230
29.490, 13.255
29.500, 6.281
29.510, 4.308
29.520, 5.335
29.530, 6.361
29.540, 19.388
29.550, 11.415
29.560, 16.442
29.570, 8.469
29.580, 12.496
29.590, 5.523
29.600, 8.699
29.610, 5.726
29.620, 8.754
29.630, 9.781
29.640, 13.808
29.650, 0.836
29.660, 9.863
29.670, 1.891
29.680, 6.919
29.690, 15.947
29.700, 11.975
29.710, 8.003
29.720, 10.032
29.730, 13.195
29.740, 8.224
29.750, 3.253
29.760, 17.282
29.770, 1.310
29.780, 2.339
29.790, 14.368
29.800, 10.585
29.810, 4.615
29.820, 7.643
29.830, 3.327
29.840, 2.301
29.850, 8.724
29.860, 7.749
29.870, 20.774
29.880, 9.799
29.890, 8.824
29.900, 11.850
29.910, 1.124
29.920, 0.096
29.930, 14.933
29.940, 12.962
29.950, 7.992
29.960, 18.021
29.970, 10.051
29.980, 24.081
29.990, 6.111
30.000, 5.141
30.010, 10.171
30.020, 5.201
30.030, 14.231
30.040, 5.300
30.050, 4.329
30.060, 14.359
30.070, 10.388
30.080, 3.417
30.090, 9.554
30.100, 11.470
30.110, 7.494
30.120, 20.517
30.130, 3.459
30.140, 7.563
30.150, 5.585
30.160, 1.607
30.170, 10.629
30.180, 12.651
30.190, 0.327
30.200, 18.695
30.210, 4.717
30.220, 4.739
30.230, 3.761
30.240, 11.784
30.250, 9.807
30.260, 12.830
30.270, 17.853
30.280, 12.876
30.290, 19.899
30.300, 15.922
30.310, 15.944
30.320, 14.967
30.330, 13.990
30.340, 24.012
30.350, 28.035
30.360, 30.057
30.370, 55.079
30.380, 43.102
30.390, 87.124
30.400, 76.147
30.410, 84.169
30.420, 97.191
30.430, 76.213
30.440, 70.235
30.450, 44.257
30.460, 62.279
30.470, 52.300
30.480, 55.322
30.490, 41.311
30.500, 38.332
30.510, 34.353
30.520, 30.375
30.530, 25.396
30.540, 22.416
30.550, 9.437
30.560, 23.458
30.570, 5.478
30.580, 4.499
30.590, 0.872
30.600, 12.147
30.610, 5.833
30.620, 17.182
30.630, 19.198
30.640, 1.909
30.650, 22.924
30.660, 4.888
30.670, 3.904
30.680, 7.919
30.690, 12.934
30.700, 12.950
30.710, 9.965
30.720, 3.980
30.730, 20.994
30.740, 9.009
30.750, 14.024
30.760, 30.038
30.770, 9.053
30.780, 24.067
30.790, 1.919
30.800, 8.094
30.810, 10.107
30.820, 6.119
30.830, 5.132
30.840, 6.209
30.850, 11.286
30.860, 6.298
30.870, 15.310
30.880, 14.322
30.890, 8.334
30.900, 10.345
30.910, 4.357
30.920, 1.632
30.930, 1.511
30.940, 22.521
30.950, 9.531
30.960, 11.541
30.970, 7.551
30.980, 2.560
30.990, 2.431
31.000, 1.577
31.010, 7.584
31.020, 1.591
31.030, 2.380
31.040, 3.217
31.050, 9.224
31.060, 5.231
31.070, 5.238
31.080, 3.509
31.090, 8.517
31.100, 6.523
31.110, 8.074
31.120, 9.061
31.130, 11.067
31.140, 6.089
31.150, 20.095
31.160, 10.100
31.170, 13.106
31.180, 17.111
31.190, 2.116
31.200, 16.121
31.210, 12.126
31.220, 18.131
31.230, 0.136
31.240, 13.140
31.250, 14.144
31.260, 14.148
31.270, 11.152
31.280, 4.156
31.290, 8.524
31.300, 9.527
31.310, 5.530
31.320, 5.555
31.330, 10.452
31.340, 13.457
31.350, 1.462
31.360, 6.467
31.370, 12.471
31.380, 3.476
31.390, 6.618
31.400, 6.622
31.410, 14.626
31.420, 14.630
31.430, 6.634
31.440, 9.638
31.450, 14.642
31.460, 7.719
31.470, 8.723
31.480, 11.727
31.490, 20.732
31.500, 10.737
31.510, 22.741
31.520, 14.746
31.530, 32.750
31.540, 33.754
31.550, 23.758
31.560, 32.763
31.570, 41.767
31.580, 20.771
31.590, 10.775
31.600, 31.779
31.610, 22.783
31.620, 35.786
31.630, 10.790
31.640, 10.793
31.650, 13.796
31.660, 11.799
31.670, 4.802
31.680, 1.805
31.690, 10.807
31.700, 10.810
31.710, 8.812
31.720, 28.815
31.730, 26.817
31.740, 19.819
31.750, 16.820
31.760, 11.822
31.770, 11.842
31.780, 12.843
31.790, 15.755
31.800, 24.758
31.810, 14.357
31.820, 17.360
31.830, 15.362
31.840, 8.365
31.850, 16.369
31.860, 31.372
31.870, 25.376
31.880, 53.379
31.890, 80.382
31.900, 137.385
31.910, 143.388
31.920, 133.391
31.930, 102.393
31.940, 79.396
31.950, 36.398
31.960, 36.400
31.970, 48.403
31.980, 75.404
31.990, 63.259
32.000, 61.262
32.010, 66.265
32.020, 33.267
32.030, 0.730
32.040, 0.728
32.050, 21.273
32.060, 9.275
32.070, 15.276
32.080, 8.277
32.090, 9.277
32.100, 10.278
32.110, 14.279
32.120, 1.856
32.130, 13.142
32.140, 7.141
32.150, 13.140
32.160, 8.139
32.170, 14.137
32.180, 3.136
32.190, 8.945
32.200, 11.943
32.210, 13.941
32.220, 0.062
32.230, 13.937
32.240, 6.937
32.250, 6.988
32.260, 5.987
32.270, 4.007
32.280, 0.990
32.290, 5.987
32.300, 10.017
32.310, 0.025
32.320, 10.967
32.330, 0.042
32.340, 8.949
32.350, 2.940
32.360, 10.931
32.370, 2.922
32.380, 8.913
32.390, 7.903
32.400, 6.927
32.410, 7.918
32.420, 6.908
32.430, 1.859
32.440, 13.949
32.450, 7.939
32.460, 2.929
32.470, 7.919
32.480, 11.909
32.490, 7.903
32.500, 12.896
32.510, 0.111
32.520, 2.118
32.530, 9.359
32.540, 13.351
32.550, 14.343
32.560, 14.335
32.570, 3.328
32.580, 2.680
32.590, 18.310
32.600, 11.301
32.610, 6.291
32.620, 2.282
32.630, 1.272
32.640, 8.325
32.650, 0.686
32.660, 2.304
32.670, 8.487
32.680, 3.672
32.690, 21.660
32.700, 15.649
32.710, 24.637
32.720, 25.626
32.730, 31.615
32.740, 14.603
32.750, 19.731
32.760, 30.720
32.770, 41.709
32.780, 45.698
32.790, 54.687
32.800, 59.676
32.810, 52.665
32.820, 39.654
32.830, 49.642
32.840, 33.630
32.850, 24.619
32.860, 37.607
32.870, 48.595
32.880, 45.582
32.890, 42.570
32.900, 49.557
32.910, 36.545
32.920, 17.532
32.930, 17.519
32.940, 15.506
32.950, 13.493
32.960, 0.480
32.970, 5.466
32.980, 11.453
32.990, 21.439
33.000, 31.426
33.010, 47.414
33.020, 36.402
33.030, 35.390
33.040, 32.377
33.050, 58.365
33.060, 97.352
33.070, 95.339
33.080, 122.327
33.090, 159.314
33.100, 201.301
33.110, 154.287
33.120, 119.274
33.130, 96.260
33.140, 71.247
33.150, 85.233
33.160, 51.219
33.170, 88.205
33.180, 86.501
33.190, 70.487
33.200, 73.474
33.210, 41.461
33.220, 37.448
33.230, 21.373
33.240, 19.294
33.250, 22.281
33.260, 26.267
33.270, 3.254
33.280, 12.240
33.290, 4.227
33.300, 11.213
33.310, 12.199
33.320, 15.053
33.330, 5.039
33.340, 14.026
33.350, 8.012
33.360, 11.998
33.370, 4.985
33.380, 9.971
33.390, 3.957
33.400, 1.944
33.410, 3.931
33.420, 17.901
33.430, 10.888
33.440, 0.125
33.450, 16.861
33.460, 0.847
33.470, 6.569
33.480, 11.556
33.490, 10.543
33.500, 4.888
33.510, 1.859
33.520, 3.846
33.530, 3.817
33.540, 4.803
33.550, 2.790
33.560, 8.777
33.570, 5.763
33.580, 8.750
33.590, 0.264
33.600, 16.722
33.610, 6.708
33.620, 3.694
33.630, 1.320
33.640, 15.665
33.650, 6.650
33.660, 5.635
33.670, 6.620
33.680, 14.830
33.690, 1.815
33.700, 7.800
33.710, 9.763
33.720, 7.400
33.730, 12.588
33.740, 3.569
33.750, 3.549
33.760, 8.530
33.770, 8.510
33.780, 13.293
33.790, 7.274
33.800, 12.254
33.810, 5.234
33.820, 2.214
33.830, 0.806
33.840, 19.173
33.850, 6.080
33.860, 2.941
33.870, 2.963
33.880, 6.013
33.890, 5.989
33.900, 6.965
33.910, 3.028
33.920, 12.004
33.930, 5.980
33.940, 2.044
33.950, 12.211
33.960, 2.186
33.970, 3.160
33.980, 14.135
33.990, 19.110
34.000, 15.084
34.010, 9.059
34.020, 9.034
34.030, 12.008
34.040, 12.983
34.050, 3.957
34.060, 10.932
34.070, 7.907
34.080, 17.881
34.090, 13.856
34.100, 15.830
34.110, 12.805
34.120, 27.779
34.130, 1.754
34.140, 12.729
34.150, 13.703
34.160, 7.659
34.170, 2.634
34.180, 17.609
34.190, 7.583
34.200, 5.558
34.210, 10.533
34.220, 15.507
34.230, 1.482
34.240, 3.457
34.250, 5.431
34.260, 9.406
34.270, 6.381
34.280, 15.356
34.290, 14.330
34.300, 14.305
34.310, 16.280
34.320, 7.255
34.330, 13.230
34.340, 8.205
34.350, 18.180
34.360, 2.155
34.370, 4.870
34.380, 13.102
34.390, 21.259
34.400, 17.231
34.410, 17.204
34.420, 0.176
34.430, 20.149
34.440, 8.122
34.450, 15.095
34.460, 8.192
34.470, 7.165
34.480, 12.139
34.490, 10.112
34.500, 20.085
34.510, 9.059
34.520, 38.033
34.530, 27.007
34.540, 30.981
34.550, 38.955
34.560, 61.951
34.570, 58.925
34.580, 118.899
34.590, 108.874
34.600, 88.848
34.610, 59.823
34.620, 53.920
34.630, 40.895
34.640, 36.819
34.650, 39.794
34.660, 65.072
34.670, 67.049
34.680, 65.026
34.690, 58.003
34.700, 29.982
34.710, 34.962
34.720, 42.941
34.730, 23.921
34.740, 25.901
34.750, 15.881
34.760, 2.861
34.770, 5.842
34.780, 8.822
34.790, 12.768
34.800, 6.749
34.810, 14.729
34.820, 9.710
34.830, 3.593
34.840, 13.576
34.850, 10.560
34.860, 11.544
34.870, 3.472
34.880, 17.510
34.890, 0.493
34.900, 0.475
34.910, 1.457
34.920, 0.043
34.930, 9.940
34.940, 5.924
34.950, 17.907
34.960, 5.891
34.970, 5.875
34.980, 11.859
34.990, 5.844
35.000, 10.829
35.010, 1.814
35.020, 16.800
35.030, 2.722
35.040, 6.708
35.050, 5.694
35.060, 4.486
35.070, 5.277
35.080, 10.263
35.090, 3.250
35.100, 1.763
35.110, 9.224
35.120, 8.210
35.130, 9.197
35.140, 4.955
35.150, 7.029
35.160, 9.014
35.170, 2.001
35.180, 15.987
35.190, 12.974
35.200, 10.961
35.210, 0.949
35.220, 7.936
35.230, 5.924
35.240, 14.911
35.250, 26.899
35.260, 2.887
35.270, 10.876
35.280, 10.864
35.290, 11.853
35.300, 16.842
35.310, 8.831
35.320, 6.821
35.330, 16.810
35.340, 5.800
35.350, 22.790
35.360, 22.780
35.370, 9.771
35.380, 8.761
35.390, 36.752
35.400, 28.743
35.410, 25.734
35.420, 32.726
35.430, 40.717
35.440, 55.709
35.450, 27.701
35.460, 44.693
35.470, 17.685
35.480, 23.677
35.490, 36.670
35.500, 18.663
35.510, 29.656
35.520, 32.649
35.530, 31.643
35.540, 20.636
35.550, 18.630
35.560, 25.624
35.570, 21.309
35.580, 3.697
35.590, 19.296
35.600, 12.291
35.610, 3.286
35.620, 6.278
35.630, 14.273
35.640, 3.269
35.650, 2.736
35.660, 9.259
35.670, 6.254
35.680, 2.249
35.690, 8.245
35.700, 2.242
35.710, 1.240
35.720, 7.239
35.730, 4.239
35.740, 4.239
35.750, 0.761
35.760, 11.239
35.770, 14.240
35.780, 8.240
35.790, 2.241
35.800, 1.243
35.810, 2.705
35.820, 19.296
35.830, 6.297
35.840, 8.299
35.850, 5.699
35.860, 13.355
35.870, 0.354
35.880, 0.354
35.890, 16.355
35.900, 7.355
35.910, 7.356
35.920, 16.357
35.930, 16.358
35.940, 28.359
35.950, 11.360
35.960, 10.362
35.970, 33.364
35.980, 43.366
35.990, 30.369
36.000, 22.372
36.010, 21.375
36.020, 26.976
36.030, 18.074
36.040, 30.109
36.050, 6.113
36.060, 24.118
36.070, 27.897
36.080, 34.902
36.090, 16.907
36.100, 17.911
36.110, 27.916
36.120, 24.916
36.130, 22.923
36.140, 39.931
36.150, 37.939
36.160, 32.947
36.170, 25.955
36.180, 35.963
36.190, 27.971
36.200, 24.980
36.210, 36.988
36.220, 25.997
36.230, 31.006
36.240, 25.090
36.250, 14.099
36.260, 31.110
36.270, 21.121
36.280, 20.133
36.290, 37.145
36.300, 14.070
36.310, 23.082
36.320, 12.095
36.330, 22.107
36.340, 14.840
36.350, 15.853
36.360, 12.242
36.370, 20.256
36.380, 12.270
36.390, 23.284
36.400, 7.298
36.410, 29.312
36.420, 8.326
36.430, 9.340
36.440, 19.355
36.450, 20.370
36.460, 20.384
36.470, 11.451
36.480, 22.466
36.490, 20.481
36.500, 10.497
36.510, 17.512
36.520, 18.528
36.530, 6.543
36.540, 15.559
36.550, 8.575
36.560, 25.591
36.570, 9.607
36.580, 20.623
36.590, 8.640
36.600, 7.657
36.610, 11.675
36.620, 21.694
36.630, 5.712
36.640, 21.730
36.650, 21.749
36.660, 4.767
36.670, 10.786
36.680, 14.805
36.690, 24.825
36.700, 16.845
36.710, 14.864
36.720, 15.884
36.730, 11.904
36.740, 19.925
36.750, 22.945
36.760, 12.965
36.770, 3.987
36.780, 3.825
36.790, 7.165
36.800, 2.187
36.810, 16.209
36.820, 13.232
36.830, 5.254
36.840, 17.277
36.850, 22.176
36.860, 11.198
36.870, 20.221
36.880, 17.244
36.890, 15.514
36.900, 10.971
36.910, 16.995
36.920, 8.018
36.930, 10.159
36.940, 8.183
36.950, 6.184
36.960, 11.208
36.970, 21.232
36.980, 25.308
36.990, 1.331
37.000, 0.644
37.010, 10.363
37.020, 0.387
37.030, 12.412
37.040, 14.436
37.050, 0.849
37.060, 17.175
37.070, 11.199
37.080, 7.228
37.090, 13.253
37.100, 0.277
37.110, 2.302
37.120, 2.328
37.130, 14.353
37.140, 5.410
37.150, 9.435
37.160, 7.460
37.170, 17.486
37.180, 6.511
37.190, 5.537
37.200, 18.562
37.210, 9.413
37.220, 1.392
37.230, 0.373
37.240, 7.646
37.250, 11.666
37.260, 17.685
37.270, 15.705
37.280, 26.725
37.290, 27.745
37.300, 28.765
37.310, 26.786
37.320, 24.806
37.330, 11.826
37.340, 16.846
37.350, 26.866
37.360, 21.886
37.370, 17.907
37.380, 8.927
37.390, 21.947
37.400, 18.967
37.410, 14.987
37.420, 20.007
37.430, 0.973
37.440, 5.046
37.450, 15.065
37.460, 21.085
37.470, 1.104
37.480, 6.123
37.490, 9.142
37.500, 11.162
37.510, 9.181
37.520, 12.201
37.530, 13.220
37.540, 4.241
37.550, 5.739
37.560, 21.282
37.570, 6.299
37.580, 7.316
37.590, 14.333
37.600, 6.350
37.610, 2.367
37.620, 5.384
37.630, 8.401
37.640, 3.418
37.650, 3.435
37.660, 0.549
37.670, 9.467
37.680, 13.484
37.690, 10.500
37.700, 16.516
37.710, 23.531
37.720, 13.547
37.730, 30.567
37.740, 47.587
37.750, 29.606
37.760, 37.626
37.770, 30.647
37.780, 24.669
37.790, 15.009
37.800, 16.030
37.810, 15.051
37.820, 25.072
37.830, 24.093
37.840, 33.114
37.850, 27.135
37.860, 21.156
37.870, 16.176
37.880, 12.327
37.890, 16.347
37.900, 27.368
37.910, 6.388
37.920, 8.408
37.930, 14.428
37.940, 12.448
37.950, 1.468
37.960, 5.487
37.970, 5.507
37.980, 4.472
37.990, 4.547
38.000, 8.565
38.010, 3.584
38.020, 12.602
38.030, 10.620
38.040, 9.638
38.050, 7.656
38.060, 5.674
38.070, 2.693
38.080, 3.289
38.090, 6.274
38.100, 14.738
38.110, 11.750
38.120, 1.238
38.130, 10.772
38.140, 2.782
38.150, 6.793
38.160, 8.803
38.170, 0.187
38.180, 11.822
38.190, 6.123
38.200, 0.919
38.210, 3.090
38.220, 4.098
38.230, 3.107
38.240, 11.115
38.250, 13.070
38.260, 16.079
38.270, 1.088
38.280, 16.097
38.290, 4.216
38.300, 16.336
38.310, 18.344
38.320, 8.352
38.330, 0.360
38.340, 8.368
38.350, 8.375
38.360, 4.383
38.370, 18.390
38.380, 11.397
38.390, 11.403
38.400, 16.410
38.410, 5.819
38.420, 4.730
38.430, 7.705
38.440, 25.711
38.450, 10.717
38.460, 25.723
38.470, 35.729
38.480, 44.735
38.490, 50.740
38.500, 54.746
38.510, 57.751
38.520, 81.756
38.530, 73.761
38.540, 41.766
38.550, 61.771
38.560, 55.776
38.570, 36.781
38.580, 41.786
38.590, 29.791
38.600, 41.795
38.610, 50.800
38.620, 49.805
38.630, 47.735
38.640, 39.740
38.650, 22.744
38.660, 19.748
38.670, 24.752
38.680, 19.756
38.690, 16.760
38.700, 27.764
38.710, 8.767
38.720, 3.771
38.730, 24.774
38.740, 33.777
38.750, 0.405
38.760, 13.409
38.770, 37.412
38.780, 39.415
38.790, 42.418
38.800, 45.421
38.810, 50.424
38.820, 29.427
38.830, 41.430
38.840, 37.433
38.850, 22.436
38.860, 30.386
38.870, 23.389
38.880, 41.392
38.890, 11.394
38.900, 19.396
38.910, 28.399
38.920, 21.336
38.930, 20.338
38.940, 18.340
38.950, 22.342
38.960, 21.778
38.970, 5.780
38.980, 4.218
38.990, 8.780
39.000, 10.778
39.010, 13.786
39.020, 3.784
39.030, 14.782
39.040, 23.780
39.050, 12.777
39.060, 27.775
39.070, 1.228
39.080, 7.768
39.090, 4.764
39.100, 7.760
39.110, 11.756
39.120, 9.752
39.130, 11.748
39.140, 26.743
39.150, 32.739
39.160, 26.735
39.170, 28.999
39.180, 27.676
39.190, 21.671
39.200, 24.666
39.210, 14.661
39.220, 12.656
39.230, 13.651
39.240, 13.645
39.250, 8.640
39.260, 25.634
39.270, 20.629
39.280, 18.377
39.290, 11.938
39.300, 32.932
39.310, 17.927
39.320, 2.803
39.330, 8.797
39.340, 9.791
39.350, 19.785
39.360, 1.779
39.370, 9.721
39.380, 4.285
39.390, 4.706
39.400, 16.592
39.410, 8.584
39.420, 7.575
39.430, 5.567
39.440, 8.558
39.450, 11.550
39.460, 17.541
39.470, 9.527
39.480, 1.481
39.490, 1.491
39.500, 16.499
39.510, 15.488
39.520, 2.477
39.530, 1.435
39.540, 15.424
39.550, 20.413
39.560, 10.402
39.570, 3.391
39.580, 25.380
39.590, 9.369
39.600, 38.358
39.610, 27.350
39.620, 39.342
39.630, 33.335
39.640, 11.328
39.650, 9.321
39.660, 28.314
39.670, 22.308
39.680, 11.301
39.690, 18.296
39.700, 2.290
39.710, 10.284
39.720, 18.279
39.730, 18.273
39.740, 16.267
39.750, 21.261
39.760, 10.343
39.770, 8.337
39.780, 9.332
39.790, 10.326
39.800, 9.320
39.810, 12.314
39.820, 19.308
39.830, 0.303
39.840, 5.297
39.850, 4.291
39.860, 1.286
39.870, 14.280
39.880, 3.275
39.890, 8.269
39.900, 12.264
39.910, 7.260
39.920, 7.255
39.930, 10.250
39.940, 5.326
39.950, 6.320
39.960, 12.317
39.970, 19.315
39.980, 6.313
39.990, 26.311
40.000, 14.309
40.010, 16.308
40.020, 13.306
40.030, 10.304
40.040, 14.302
40.050, 7.301
40.060, 8.299
40.070, 13.298
40.080, 3.297
40.090, 18.296
40.100, 12.294
40.110, 14.707
40.120, 11.284
40.130, 15.275
40.140, 12.265
40.150, 6.744
40.160, 6.243
40.170, 5.230
40.180, 16.899
40.190, 9.886
40.200, 0.127
40.210, 5.861
40.220, 9.849
40.230, 12.838
40.240, 18.826
40.250, 14.815
40.260, 5.803
40.270, 7.662
40.280, 5.652
40.290, 12.641
40.300, 10.631
40.310, 8.621
40.320, 15.705
40.330, 14.695
40.340, 3.685
40.350, 3.675
40.360, 4.334
40.370, 10.654
40.380, 7.643
40.390, 9.633
40.400, 6.622
40.410, 7.612
40.420, 3.601
40.430, 6.591
40.440, 24.581
40.450, 27.667
40.460, 11.657
40.470, 11.648
40.480, 18.639
40.490, 15.633
40.500, 13.626
40.510, 7.620
40.520, 19.614
40.530, 11.608
40.540, 10.603
40.550, 18.597
40.560, 4.592
40.570, 5.586
40.580, 33.290
40.590, 20.285
40.600, 23.280
40.610, 21.276
40.620, 10.272
40.630, 11.268
40.640, 21.264
40.650, 18.260
40.660, 4.256
40.670, 15.252
40.680, 19.138
40.690, 3.024
40.700, 12.021
40.710, 18.018
40.720, 10.015
40.730, 13.012
40.740, 11.009
40.750, 15.007
40.760, 13.005
40.770, 11.003
40.780, 14.000
40.790, 8.999
40.800, 7.997
40.810, 17.995
40.820, 12.256
40.830, 16.255
40.840, 5.253
40.850, 6.252
40.860, 8.323
40.870, 11.322
40.880, 19.517
40.890, 7.516
40.900, 23.515
40.910, 20.515
40.920, 7.514
40.930, 19.513
40.940, 16.513
40.950, 1.488
40.960, 7.511
40.970, 2.510
40.980, 14.509
40.990, 13.508
41.000, 1.507
41.010, 9.506
41.020, 17.505
41.030, 8.504
41.040, 2.504
41.050, 11.503
41.060, 5.510
41.070, 7.510
41.080, 7.510
41.090, 7.697
41.100, 2.697
41.110, 2.697
41.120, 7.757
41.130, 1.243
41.140, 18.756
41.150, 10.756
41.160, 16.001
41.170, 6.001
41.180, 9.001
41.190, 2.001
41.200, 11.002
41.210, 15.002
41.220, 20.002
41.230, 14.002
41.240, 10.056
41.250, 14.056
41.260, 7.057
41.270, 5.057
41.280, 7.058
41.290, 8.059
41.300, 6.059
41.310, 12.125
41.320, 5.125
41.330, 10.126
41.340, 14.128
41.350, 9.694
41.360, 17.696
41.370, 17.698
41.380, 24.701
41.390, 9.704
41.400, 12.927
41.410, 21.931
41.420, 12.036
41.430, 2.040
41.440, 11.044
41.450, 9.048
41.460, 6.052
41.470, 4.281
41.480, 9.286
41.490, 22.294
41.500, 20.301
41.510, 1.690
41.520, 7.318
41.530, 10.327
41.540, 0.335
41.550, 4.343
41.560, 22.083
41.570, 13.092
41.580, 14.100
41.590, 6.109
41.600, 7.118
41.610, 9.127
41.620, 7.136
41.630, 16.207
41.640, 1.783
41.650, 10.225
41.660, 18.234
41.670, 5.244
41.680, 10.253
41.690, 18.263
41.700, 18.273
41.710, 34.283
41.720, 39.293
41.730, 53.303
41.740, 81.314
41.750, 74.324
41.760, 90.335
41.770, 69.345
41.780, 48.357
41.790, 21.369
41.800, 33.382
41.810, 31.394
41.820, 34.406
41.830, 25.418
41.840, 26.431
41.850, 46.443
41.860, 35.456
41.870, 45.468
41.880, 35.481
41.890, 30.495
41.900, 21.509
41.910, 16.523
41.920, 8.537
41.930, 10.587
41.940, 5.601
41.950, 8.615
41.960, 13.629
41.970, 18.643
41.980, 8.657
41.990, 6.672
42.000, 15.686
42.010, 4.300
42.020, 4.712
42.030, 4.725
42.040, 6.737
42.050, 1.251
42.060, 12.761
42.070, 3.227
42.080, 6.784
42.090, 20.795
42.100, 8.807
42.110, 3.818
42.120, 9.830
42.130, 12.841
42.140, 13.853
42.150, 8.777
42.160, 21.788
42.170, 6.800
42.180, 9.812
42.190, 19.824
42.200, 4.836
42.210, 16.848
42.220, 7.860
42.230, 0.872
42.240, 14.885
42.250, 0.102
42.260, 10.910
42.270, 0.923
42.280, 3.065
42.290, 6.946
42.300, 6.957
42.310, 1.031
42.320, 13.979
42.330, 10.910
42.340, 8.921
42.350, 3.989
42.360, 10.020
42.370, 4.029
42.380, 12.038
42.390, 17.047
42.400, 17.056
42.410, 10.065
42.420, 22.075
42.430, 0.916
42.440, 16.093
42.450, 9.102
42.460, 9.111
42.470, 4.120
42.480, 12.129
42.490, 15.138
42.500, 9.147
42.510, 12.160
42.520, 8.174
42.530, 10.260
42.540, 8.274
42.550, 28.289
42.560, 11.304
42.570, 9.320
42.580, 16.336
42.590, 3.649
42.600, 3.365
42.610, 1.621
42.620, 11.392
42.630, 13.405
42.640, 1.429
42.650, 3.442
42.660, 3.545
42.670, 2.466
42.680, 3.120
42.690, 11.132
42.700, 20.345
42.710, 14.263
42.720, 5.274
42.730, 4.285
42.740, 12.297
42.750, 8.308
42.760, 5.320
42.770, 11.333
42.780, 7.345
42.790, 17.358
42.800, 6.370
42.810, 9.383
42.820, 0.605
42.830, 3.407
42.840, 2.393
42.850, 10.405
42.860, 7.548
42.870, 11.560
42.880, 6.572
42.890, 14.584
42.900, 9.596
42.910, 11.673
42.920, 17.685
42.930, 10.697
42.940, 17.709
42.950, 9.721
42.960, 16.732
42.970, 10.744
42.980, 5.756
42.990, 12.768
43.000, 17.781
43.010, 16.793
43.020, 12.804
43.030, 12.816
43.040, 11.828
43.050, 14.839
43.060, 6.851
43.070, 29.862
43.080, 8.874
43.090, 3.885
43.100, 7.897
43.110, 11.908
43.120, 0.080
43.130, 6.932
43.140, 18.944
43.150, 14.955
43.160, 12.967
43.170, 19.979
43.180, 14.991
43.190, 12.004
43.200, 12.016
43.210, 7.766
43.220, 15.779
43.230, 2.791
43.240, 14.804
43.250, 14.745
43.260, 18.757
43.270, 10.855
43.280, 23.867
43.290, 10.880
43.300, 22.893
43.310, 16.905
43.320, 3.918
43.330, 7.930
43.340, 13.942
43.350, 21.955
43.360, 9.969
43.370, 19.982
43.380, 5.995
43.390, 18.009
43.400, 3.025
43.410, 18.088
43.420, 19.106
43.430, 10.123
43.440, 6.141
43.450, 10.151
43.460, 15.169
43.470, 8.186
43.480, 5.017
43.490, 17.034
43.500, 15.052
43.510, 10.009
43.520, 5.027
43.530, 12.045
43.540, 0.937
43.550, 10.834
43.560, 5.851
43.570, 9.868
43.580, 4.885
43.590, 17.908
43.600, 10.926
43.610, 9.944
43.620, 15.962
43.630, 7.927
43.640, 12.945
43.650, 13.963
43.660, 10.981
43.670, 6.999
43.680, 5.016
43.690, 9.034
43.700, 9.052
43.710, 23.070
43.720, 0.912
43.730, 11.105
43.740, 8.122
43.750, 16.139
43.760, 5.156
43.770, 11.173
43.780, 8.191
43.790, 9.981
43.800, 16.999
43.810, 5.916
43.820, 13.934
43.830, 0.047
43.840, 6.971
43.850, 9.989
43.860, 12.783
43.870, 10.199
43.880, 3.814
43.890, 3.174
43.900, 1.837
43.910, 4.848
43.920, 1.859
43.930, 4.870
43.940, 9.881
43.950, 17.892
43.960, 4.903
43.970, 13.914
43.980, 5.925
43.990, 9.936
44.000, 3.947
44.010, 16.958
44.020, 4.906
44.030, 1.083
44.040, 13.928
44.050, 2.062
44.060, 1.948
44.070, 8.957
44.080, 6.966
44.090, 6.975
44.100, 1.015
44.110, 1.993
44.120, 4.002
44.130, 4.010
44.140, 19.019
44.150, 5.027
44.160, 4.036
44.170, 11.045
44.180, 4.055
44.190, 0.064
44.200, 12.073
44.210, 12.082
44.220, 9.091
44.230, 6.101
44.240, 6.110
44.250, 13.119
44.260, 20.128
44.270, 22.141
44.280, 13.150
44.290, 14.159
44.300, 10.168
44.310, 23.334
44.320, 17.307
44.330, 28.316
44.340, 10.324
44.350, 24.427
44.360, 11.436
44.370, 12.444
44.380, 10.609
44.390, 12.618
44.400, 7.626
44.410, 16.636
44.420, 6.646
44.430, 3.686
44.440, 7.696
44.450, 6.705
44.460, 4.285
44.470, 15.723
44.480, 8.731
44.490, 22.740
44.500, 20.748
44.510, 1.755
44.520, 17.763
44.530, 3.771
44.540, 10.779
44.550, 9.890
44.560, 18.898
44.570, 9.906
44.580, 8.017
44.590, 9.505
44.600, 0.007
44.610, 14.000
44.620, 10.007
44.630, 7.014
44.640, 15.021
44.650, 12.029
44.660, 13.035
44.670, 9.042
44.680, 17.050
44.690, 24.057
44.700, 13.065
44.710, 17.072
44.720, 25.079
44.730, 24.087
44.740, 5.014
44.750, 20.022
44.760, 12.030
44.770, 3.038
44.780, 1.046
44.790, 17.290
44.800, 14.297
44.810, 8.304
44.820, 7.311
44.830, 20.318
44.840, 25.326
44.850, 20.334
44.860, 15.342
44.870, 9.350
44.880, 21.358
44.890, 28.366
44.900, 25.373
44.910, 50.381
44.920, 72.315
44.930, 104.322
44.940, 84.329
44.950, 44.336
44.960, 40.343
44.970, 45.713
44.980, 33.719
44.990, 46.727
45.000, 33.734
45.010, 31.742
45.020, 30.749
45.030, 31.745
45.040, 37.752
45.050, 55.759
45.060, 43.767
45.070, 38.131
45.080, 41.139
45.090, 30.944
45.100, 30.951
45.110, 28.959
45.120, 30.966
45.130, 14.973
45.140, 27.979
45.150, 23.986
45.160, 27.993
45.170, 10.999
45.180, 13.006
45.190, 21.012
45.200, 16.019
45.210, 26.026
45.220, 23.033
45.230, 11.970
45.240, 20.977
45.250, 20.852
45.260, 29.859
45.270, 51.866
45.280, 31.872
45.290, 23.879
45.300, 53.819
45.310, 33.826
45.320, 18.832
45.330, 37.838
45.340, 16.844
45.350, 25.984
45.360, 21.061
45.370, 27.067
45.380, 14.073
45.390, 27.077
45.400, 20.082
45.410, 34.088
45.420, 29.093
45.430, 30.099
45.440, 30.105
45.450, 19.111
45.460, 1.117
45.470, 10.123
45.480, 8.128
45.490, 21.134
45.500, 1.861
45.510, 21.143
45.520, 11.147
45.530, 3.151
45.540, 0.845
45.550, 8.157
45.560, 15.161
45.570, 1.835
45.580, 10.167
45.590, 7.170
45.600, 11.172
45.610, 9.174
45.620, 0.176
45.630, 3.178
45.640, 8.179
45.650, 6.180
45.660, 11.900
45.670, 17.901
45.680, 10.903
45.690, 9.904
45.700, 8.904
45.710, 1.905
45.720, 19.906
45.730, 4.907
45.740, 1.093
45.750, 7.907
45.760, 8.906
45.770, 1.095
45.780, 7.096
45.790, 7.102
45.800, 8.842
45.810, 2.980
45.820, 4.969
45.830, 6.959
45.840, 7.949
45.850, 13.938
45.860, 12.928
45.870, 6.917
45.880, 11.906
45.890, 5.895
45.900, 5.884
45.910, 2.873
45.920, 3.862
45.930, 10.851
45.940, 12.840
45.950, 15.829
45.960, 15.818
45.970, 9.807
45.980, 3.210
45.990, 15.777
46.000, 4.763
46.010, 24.750
46.020, 11.736
46.030, 15.723
46.040, 6.006
46.050, 5.992
46.060, 10.978
46.070, 8.964
46.080, 2.950
46.090, 14.936
46.100, 18.922
46.110, 14.908
46.120, 20.894
46.130, 10.879
46.140, 11.865
46.150, 18.851
46.160, 5.163
46.170, 10.819
46.180, 20.801
46.190, 16.784
46.200, 8.766
46.210, 21.748
46.220, 23.730
46.230, 20.712
46.240, 9.694
46.250, 10.676
46.260, 12.658
46.270, 7.643
46.280, 13.627
46.290, 14.613
46.300, 10.598
46.310, 17.583
46.320, 15.568
46.330, 24.553
46.340, 9.538
46.350, 6.523
46.360, 12.508
46.370, 17.492
46.380, 12.619
46.390, 13.604
46.400, 20.588
46.410, 12.598
46.420, 14.582
46.430, 8.567
46.440, 13.552
46.450, 10.537
46.460, 24.522
46.470, 19.535
46.480, 5.520
46.490, 19.505
46.500, 2.490
46.510, 9.475
46.520, 17.460
46.530, 8.445
46.540, 1.539
46.550, 0.556
46.560, 6.429
46.570, 13.412
46.580, 11.395
46.590, 14.377
46.600, 12.360
46.610, 5.343
46.620, 1.541
46.630, 12.525
46.640, 1.509
46.650, 8.492
46.660, 11.472
46.670, 11.455
46.680, 12.439
46.690, 3.422
46.700, 12.249
46.710, 13.232
46.720, 13.215
46.730, 10.199
46.740, 11.089
46.750, 22.343
46.760, 20.328
46.770, 4.181
46.780, 8.166
46.790, 23.151
46.800, 22.136
46.810, 21.121
46.820, 14.075
46.830, 19.060
46.840, 7.045
46.850, 12.030
46.860, 24.016
46.870, 11.002
46.880, 19.988
46.890, 13.973
46.900, 16.959
46.910, 20.945
46.920, 18.931
46.930, 8.917
46.940, 15.799
46.950, 9.785
46.960, 6.771
46.970, 5.653
46.980, 4.159
46.990, 7.665
47.000, 2.347
47.010, 9.639
47.020, 6.625
47.030, 5.611
47.040, 1.597
47.050, 8.584
47.060, 9.571
47.070, 12.557
47.080, 13.544
47.090, 10.531
47.100, 2.518
47.110, 4.505
47.120, 14.492
47.130, 6.478
47.140, 7.466
47.150, 8.453
47.160, 30.440
47.170, 5.427
47.180, 7.178
47.190, 4.165
47.200, 11.153
47.210, 21.141
47.220, 9.130
47.230, 4.882
47.240, 14.105
47.250, 11.091
47.260, 10.077
47.270, 7.064
47.280, 2.050
47.290, 11.037
47.300, 29.023
47.310, 12.010
47.320, 13.997
47.330, 15.984
47.340, 5.971
47.350, 18.958
47.360, 4.581
47.370, 6.569
47.380, 7.557
47.390, 10.544
47.400, 2.532
47.410, 17.520
47.420, 3.509
47.430, 5.497
47.440, 6.485
47.450, 3.474
47.460, 7.463
47.470, 4.451
47.480, 6.440
47.490, 5.429
47.500, 16.419
47.510, 8.408
47.520, 8.397
47.530, 11.387
47.540, 5.376
47.550, 3.366
47.560, 9.356
47.570, 2.654
47.580, 9.334
47.590, 8.323
47.600, 0.688
47.610, 12.301
47.620, 5.290
47.630, 4.279
47.640, 17.268
47.650, 9.257
47.660, 0.753
47.670, 12.236
47.680, 14.225
47.690, 16.215
47.700, 14.204
47.710, 9.194
47.720, 4.184
47.730, 0.826
47.740, 7.030
47.750, 0.052
47.760, 1.938
47.770, 12.928
47.780, 8.918
47.790, 3.909
47.800, 12.899
47.810, 3.793
47.820, 15.195
47.830, 10.185
47.840, 13.174
47.850, 3.163
47.860, 10.153
47.870, 1.142
47.880, 5.132
47.890, 7.135
47.900, 18.126
47.910, 3.128
47.920, 23.119
47.930, 15.363
47.940, 4.456
47.950, 11.534
47.960, 0.476
47.970, 10.514
47.980, 17.504
47.990, 10.495
48.000, 19.485
48.010, 4.476
48.020, 20.467
48.030, 29.458
48.040, 49.449
48.050, 64.440
48.060, 90.432
48.070, 55.424
48.080, 86.415
48.090, 71.418
48.100, 59.410
48.110, 35.412
48.120, 31.405
48.130, 27.406
48.140, 21.399
48.150, 24.392
48.160, 16.385
48.170, 29.379
48.180, 39.683
48.190, 39.681
48.200, 50.532
48.210, 49.530
48.220, 39.529
48.230, 41.527
48.240, 8.580
48.250, 17.578
48.260, 21.577
48.270, 3.576
48.280, 11.575
48.290, 16.575
48.300, 21.574
48.310, 25.573
48.320, 2.573
48.330, 4.573
48.340, 6.573
48.350, 12.574
48.360, 5.574
48.370, 11.575
48.380, 6.577
48.390, 5.579
48.400, 16.806
48.410, 13.808
48.420, 14.811
48.430, 15.516
48.440, 6.519
48.450, 11.522
48.460, 16.525
48.470, 8.528
48.480, 30.532
48.490, 10.537
48.500, 8.541
48.510, 2.546
48.520, 6.551
48.530, 5.556
48.540, 7.561
48.550, 9.567
48.560, 22.574
48.570, 12.655
48.580, 11.662
48.590, 17.670
48.600, 22.678
48.610, 21.686
48.620, 23.694
48.630, 36.703
48.640, 13.711
48.650, 27.720
48.660, 27.729
48.670, 43.738
48.680, 47.747
48.690, 36.756
48.700, 38.765
48.710, 44.774
48.720, 26.784
48.730, 43.794
48.740, 36.803
48.750, 30.813
48.760, 32.823
48.770, 27.691
48.780, 32.701
48.790, 19.711
48.800, 25.696
48.810, 37.707
48.820, 37.717
48.830, 18.728
48.840, 18.739
48.850, 7.751
48.860, 25.736
48.870, 12.748
48.880, 13.761
48.890, 20.774
48.900, 3.787
48.910, 16.800
48.920, 16.813
48.930, 18.795
48.940, 15.809
48.950, 21.821
48.960, 9.836
48.970, 16.851
48.980, 12.866
48.990, 17.881
49.000, 5.103
49.010, 14.696
49.020, 7.709
49.030, 5.723
49.040, 6.736
49.050, 8.751
49.060, 17.765
49.070, 4.780
49.080, 0.206
49.090, 6.809
49.100, 0.177
49.110, 10.838
49.120, 4.147
49.130, 3.134
49.140, 2.608
49.150, 14.619
49.160, 11.607
49.170, 12.618
49.180, 16.630
49.190, 13.642
49.200, 8.654
49.210, 4.666
49.220, 4.679
49.230, 10.692
49.240, 6.705
49.250, 17.718
49.260, 16.731
49.270, 9.745
49.280, 0.242
49.290, 2.772
49.300, 0.214
49.310, 5.799
49.320, 0.187
49.330, 5.827
49.340, 9.840
49.350, 0.854
49.360, 18.868
49.370, 5.118
49.380, 7.894
49.390, 13.906
49.400, 11.918
49.410, 1.931
49.420, 5.943
49.430, 1.044
49.440, 9.968
49.450, 0.980
49.460, 7.993
49.470, 6.005
49.480, 5.018
49.490, 21.030
49.500, 1.043
49.510, 20.056
49.520, 20.183
49.530, 7.196
49.540, 7.210
49.550, 7.224
49.560, 9.238
49.570, 15.252
49.580, 2.266
49.590, 3.676
49.600, 7.336
49.610, 17.348
49.620, 6.361
49.630, 3.375
49.640, 3.388
49.650, 13.402
49.660, 18.416
49.670, 15.725
49.680, 8.739
49.690, 4.753
49.700, 11.767
49.710, 1.781
49.720, 9.795
49.730, 8.809
49.740, 3.925
49.750, 15.939
49.760, 1.047
49.770, 8.967
49.780, 3.981
49.790, 17.994
49.800, 7.045
49.810, 3.058
49.820, 2.072
49.830, 2.087
49.840, 4.131
49.850, 16.145
49.860, 16.159
49.870, 5.173
49.880, 16.188
49.890, 4.202
49.900, 9.216
49.910, 19.230
49.920, 18.244
49.930, 6.259
49.940, 19.274
49.950, 3.289
49.960, 14.304
49.970, 6.319
49.980, 2.335
49.990, 8.350
50.000, 5.366
50.010, 15.382
50.020, 14.398
50.030, 11.413
50.040, 2.755
50.050, 4.770
50.060, 8.786
50.070, 6.803
50.080, 6.820
50.090, 5.838
50.100, 10.855
50.110, 2.881
50.120, 11.898
50.130, 10.915
50.140, 12.933
50.150, 7.950
50.160, 6.967
50.170, 7.984
50.180, 10.183
50.190, 6.200
50.200, 15.900
50.210, 11.918
50.220, 10.936
50.230, 20.954
50.240, 29.088
50.250, 28.106
50.260, 17.124
50.270, 36.142
50.280, 55.146
50.290, 64.164
50.300, 48.170
50.310, 40.188
50.320, 22.953
50.330, 15.788
50.340, 16.807
50.350, 1.826
50.360, 7.845
50.370, 9.864
50.380, 17.884
50.390, 15.903
50.400, 15.027
50.410, 26.088
50.420, 21.107
50.430, 25.126
50.440, 10.145
50.450, 15.164
50.460, 16.183
50.470, 21.202
50.480, 13.210
50.490, 9.229
50.500, 6.238
50.510, 17.257
50.520, 12.266
50.530, 2.285
50.540, 2.304
50.550, 6.322
50.560, 14.341
50.570, 4.051
50.580, 13.069
50.590, 1.088
50.600, 5.106
50.610, 7.124
50.620, 8.143
50.630, 10.107
50.640, 9.125
50.650, 2.144
50.660, 1.162
50.670, 10.180
50.680, 15.198
50.690, 6.216
50.700, 15.234
50.710, 1.587
50.720, 5.430
50.730, 9.483
50.740, 10.500
50.750, 11.517
50.760, 11.534
50.770, 13.551
50.780, 0.431
50.790, 7.361
50.800, 3.378
50.810, 1.395
50.820, 13.412
50.830, 2.429
50.840, 3.446
50.850, 1.462
50.860, 4.521
50.870, 9.493
50.880, 15.507
50.890, 13.521
50.900, 9.535
50.910, 8.549
50.920, 2.563
50.930, 1.424
50.940, 4.589
50.950, 5.601
50.960, 12.541
50.970, 4.554
50.980, 14.566
50.990, 0.422
51.000, 1.590
51.010, 8.713
51.020, 9.724
51.030, 0.264
51.040, 15.747
51.050, 2.758
51.060, 5.769
51.070, 10.780
51.080, 9.791
51.090, 4.802
51.100, 4.812
51.110, 18.823
51.120, 3.834
51.130, 5.022
51.140, 11.032
51.150, 3.042
51.160, 6.052
51.170, 8.062
51.180, 13.074
51.190, 15.086
51.200, 7.098
51.210, 5.109
51.220, 5.121
51.230, 4.868
51.240, 1.140
51.250, 3.149
51.260, 15.460
51.270, 9.469
51.280, 4.530
51.290, 6.538
51.300, 0.546
51.310, 7.553
51.320, 10.561
51.330, 9.568
51.340, 1.575
51.350, 6.582
51.360, 5.588
51.370, 2.405
51.380, 5.600
51.390, 8.605
51.400, 3.611
51.410, 9.618
51.420, 7.625
51.430, 1.368
51.440, 1.648
51.450, 1.654
51.460, 18.660
51.470, 2.665
51.480, 13.672
51.490, 2.679
51.500, 7.741
51.510, 10.748
51.520, 0.755
51.530, 16.763
51.540, 10.771
51.550, 16.779
51.560, 16.847
51.570, 4.855
51.580, 3.862
51.590, 1.131
51.600, 0.125
51.610, 6.881
51.620, 11.887
51.630, 7.893
51.640, 9.899
51.650, 8.905
51.660, 9.910
51.670, 12.916
51.680, 12.921
51.690, 11.926
51.700, 2.931
51.710, 10.936
51.720, 2.941
51.730, 10.946
51.740, 6.950
51.750, 8.954
51.760, 9.959
51.770, 2.964
51.780, 4.969
51.790, 20.974
51.800, 4.980
51.810, 5.985
51.820, 13.989
51.830, 12.994
51.840, 8.998
51.850, 12.002
51.860, 8.006
51.870, 12.010
51.880, 21.014
51.890, 13.018
51.900, 1.979
51.910, 10.909
51.920, 0.008
51.930, 9.009
51.940, 10.010
51.950, 16.011
51.960, 2.012
51.970, 3.179
51.980, 6.136
51.990, 14.138
52.000, 14.138
52.010, 8.139
52.020, 5.140
52.030, 3.140
52.040, 13.141
52.050, 9.141
52.060, 6.846
52.070, 5.846
52.080, 9.846
52.090, 2.845
52.100, 7.844
52.110, 7.843
52.120, 8.842
52.130, 1.740
52.140, 3.739
52.150, 10.737
52.160, 4.736
52.170, 6.735
52.180, 6.733
52.190, 8.695
52.200, 1.307
52.210, 5.690
52.220, 8.687
52.230, 17.654
52.240, 13.650
52.250, 4.647
52.260, 14.643
52.270, 6.639
52.280, 7.635
52.290, 6.631
52.300, 13.627
52.310, 9.622
52.320, 2.382
52.330, 14.612
52.340, 18.605
52.350, 13.599
52.360, 10.592
52.370, 8.055
52.380, 15.048
52.390, 24.041
52.400, 25.034
52.410, 17.026
52.420, 16.019
52.430, 13.685
52.440, 13.677
52.450, 4.331
52.460, 6.659
52.470, 0.352
52.480, 5.636
52.490, 11.624
52.500, 13.604
52.510, 1.592
52.520, 13.580
52.530, 12.568
52.540, 9.555
52.550, 9.543
52.560, 14.530
52.570, 9.337
52.580, 11.324
52.590, 17.311
52.600, 1.556
52.610, 5.542
52.620, 11.529
52.630, 0.534
52.640, 6.520
52.650, 3.507
52.660, 13.493
52.670, 13.807
52.680, 5.793
52.690, 0.221
52.700, 8.764
52.710, 5.749
52.720, 11.728
52.730, 20.712
52.740, 13.697
52.750, 0.318
52.760, 10.665
52.770, 5.649
52.780, 8.633
52.790, 10.512
52.800, 25.453
52.810, 8.596
52.820, 8.614
52.830, 13.598
52.840, 10.581
52.850, 8.564
52.860, 11.546
52.870, 9.529
52.880, 12.511
52.890, 10.494
52.900, 15.476
52.910, 12.458
52.920, 4.441
52.930, 7.423
52.940, 11.405
52.950, 4.387
52.960, 13.369
52.970, 7.352
52.980, 5.335
52.990, 1.318
53.000, 8.301
53.010, 18.284
53.020, 17.266
53.030, 15.249
53.040, 9.231
53.050, 4.213
53.060, 14.195
53.070, 15.178
53.080, 9.160
53.090, 15.142
53.100, 4.963
53.110, 1.054
53.120, 17.891
53.130, 22.873
53.140, 9.854
53.150, 8.835
53.160, 2.184
53.170, 12.796
53.180, 2.776
53.190, 5.755
53.200, 15.735
53.210, 16.714
53.220, 20.694
53.230, 8.673
53.240, 6.652
53.250, 13.632
53.260, 9.612
53.270, 7.592
53.280, 14.572
53.290, 13.553
53.300, 31.533
53.310, 7.513
53.320, 17.493
53.330, 17.473
53.340, 9.453
53.350, 17.434
53.360, 3.414
53.370, 11.394
53.380, 14.374
53.390, 7.354
53.400, 5.223
53.410, 6.203
53.420, 4.183
53.430, 22.163
53.440, 26.143
53.450, 14.123
53.460, 10.103
53.470, 8.083
53.480, 4.063
53.490, 2.043
53.500, 16.023
53.510, 9.003
53.520, 3.805
53.530, 3.784
53.540, 0.764
53.550, 0.744
53.560, 7.277
53.570, 4.699
53.580, 0.675
53.590, 0.650
53.600, 1.626
53.610, 6.601
53.620, 2.577
53.630, 9.554
53.640, 11.531
53.650, 9.204
53.660, 9.181
53.670, 11.104
53.680, 16.082
53.690, 7.059
53.700, 2.036
53.710, 7.013
53.720, 6.991
53.730, 22.982
53.740, 8.959
53.750, 13.937
53.760, 14.914
53.770, 10.892
53.780, 12.871
53.790, 4.151
53.800, 10.825
53.810, 9.801
53.820, 2.156
53.830, 19.810
53.840, 18.787
53.850, 9.764
53.860, 5.259
53.870, 8.715
53.880, 22.689
53.890, 7.608
53.900, 9.583
53.910, 13.557
53.920, 14.531
53.930, 8.506
53.940, 8.480
53.950, 8.395
53.960, 7.369
53.970, 7.430
53.980, 16.404
53.990, 10.381
54.000, 2.644
54.010, 0.670
54.020, 11.304
54.030, 14.278
54.040, 9.252
54.050, 11.226
54.060, 5.200
54.070, 15.174
54.080, 14.149
54.090, 15.123
54.100, 9.192
54.110, 18.167
54.120, 17.141
54.130, 8.118
54.140, 12.094
54.150, 17.070
54.160, 20.382
54.170, 16.358
54.180, 26.335
54.190, 9.310
54.200, 22.287
54.210, 13.263
54.220, 14.240
54.230, 11.217
54.240, 14.194
54.250, 17.171
54.260, 9.234
54.270, 19.211
54.280, 17.188
54.290, 29.167
54.300, 19.146
54.310, 7.029
54.320, 4.010
54.330, 20.991
54.340, 9.972
54.350, 25.953
54.360, 28.782
54.370, 26.764
54.380, 23.745
54.390, 24.726
54.400, 20.708
54.410, 19.690
54.420, 19.672
54.430, 11.654
54.440, 40.636
54.450, 17.618
54.460, 25.600
54.470, 7.583
54.480, 20.565
54.490, 33.548
54.500, 11.530
54.510, 27.514
54.520, 20.497
54.530, 23.481
54.540, 18.465
54.550, 18.448
54.560, 24.432
54.570, 10.416
54.580, 11.401
54.590, 11.385
54.600, 8.370
54.610, 19.355
54.620, 22.340
54.630, 6.325
54.640, 14.311
54.650, 22.296
54.660, 22.283
54.670, 5.269
54.680, 13.256
54.690, 14.242
54.700, 3.229
54.710, 4.216
54.720, 9.204
54.730, 23.192
54.740, 24.180
54.750, 26.169
54.760, 5.688
54.770, 13.676
54.780, 1.665
54.790, 12.654
54.800, 31.643
54.810, 6.632
54.820, 25.621
54.830, 15.611
54.840, 6.600
54.850, 6.591
54.860, 6.582
54.870, 7.623
54.880, 0.615
54.890, 12.607
54.900, 15.599
54.910, 0.591
54.920, 0.416
54.930, 15.576
54.940, 15.568
54.950, 16.561
54.960, 10.554
54.970, 11.546
54.980, 19.539
54.990, 14.275
55.000, 2.268
55.010, 1.442
55.020, 10.417
55.030, 7.410
55.040, 16.403
55.050, 4.397
55.060, 6.063
55.070, 11.057
55.080, 12.050
55.090, 6.045
55.100, 13.039
55.110, 8.034
55.120, 12.029
55.130, 11.024
55.140, 13.020
55.150, 9.016
55.160, 1.988
55.170, 20.007
55.180, 0.004
55.190, 12.000
55.200, 12.837
55.210, 8.799
55.220, 16.797
55.230, 8.794
55.240, 3.791
55.250, 16.789
55.260, 2.787
55.270, 3.786
55.280, 5.784
55.290, 2.217
55.300, 1.781
55.310, 4.780
55.320, 11.117
55.330, 4.116
55.340, 14.115
55.350, 5.886
55.360, 11.110
55.370, 10.106
55.380, 8.103
55.390, 9.101
55.400, 6.100
55.410, 9.099
55.420, 17.113
55.430, 6.113
55.440, 12.113
55.450, 1.886
55.460, 16.114
55.470, 6.114
55.480, 8.309
55.490, 14.310
55.500, 6.629
55.510, 6.631
55.520, 4.632
55.530, 7.634
55.540, 20.635
55.550, 0.363
55.560, 13.639
55.570, 2.642
55.580, 6.645
55.590, 8.648
55.600, 27.651
55.610, 35.654
55.620, 14.657
55.630, 32.660
55.640, 36.663
55.650, 60.667
55.660, 49.671
55.670, 60.674
55.680, 89.678
55.690, 54.682
55.700, 59.811
55.710, 37.815
55.720, 42.820
55.730, 39.824
55.740, 10.829
55.750, 24.833
55.760, 25.838
55.770, 8.843
55.780, 29.848
55.790, 42.853
55.800, 37.858
55.810, 37.863
55.820, 40.868
55.830, 31.874
55.840, 27.879
55.850, 42.069
55.860, 23.074
55.870, 16.080
55.880, 27.086
55.890, 13.092
55.900, 7.098
55.910, 12.104
55.920, 17.110
55.930, 10.116
55.940, 7.123
55.950, 12.129
55.960, 9.137
55.970, 18.146
55.980, 1.155
55.990, 3.163
56.000, 16.172
56.010, 8.181
56.020, 17.190
56.030, 24.199
56.040, 9.208
56.050, 13.217
56.060, 0.774
56.070, 11.234
56.080, 18.243
56.090, 17.252
56.100, 18.261
56.110, 9.269
56.120, 18.265
56.130, 15.273
56.140, 23.282
56.150, 44.292
56.160, 23.301
56.170, 12.310
56.180, 20.319
56.190, 28.329
56.200, 4.660
56.210, 18.287
56.220, 1.296
56.230, 14.304
56.240, 1.313
56.250, 15.321
56.260, 2.331
56.270, 8.341
56.280, 10.352
56.290, 22.367
56.300, 15.378
56.310, 19.389
56.320, 8.400
56.330, 11.468
56.340, 9.480
56.350, 4.492
56.360, 16.418
56.370, 8.543
56.380, 8.554
56.390, 10.566
56.400, 10.629
56.410, 9.643
56.420, 10.656
56.430, 7.671
56.440, 7.685
56.450, 3.800
56.460, 7.815
56.470, 16.830
56.480, 1.845
56.490, 10.765
56.500, 3.780
56.510, 5.205
56.520, 4.808
56.530, 5.820
56.540, 3.832
56.550, 14.509
56.560, 6.521
56.570, 0.534
56.580, 11.905
56.590, 17.963
56.600, 11.021
56.610, 0.033
56.620, 10.046
56.630, 5.292
56.640, 7.305
56.650, 3.231
56.660, 4.243
56.670, 2.745
56.680, 4.266
56.690, 4.722
56.700, 8.286
56.710, 12.294
56.720, 2.302
56.730, 12.311
56.740, 16.319
56.750, 16.312
56.760, 21.320
56.770, 4.329
56.780, 8.337
56.790, 13.345
56.800, 12.353
56.810, 17.361
56.820, 12.369
56.830, 17.377
56.840, 19.385
56.850, 21.393
56.860, 29.400
56.870, 24.408
56.880, 24.416
56.890, 1.576
56.900, 24.430
56.910, 18.437
56.920, 8.443
56.930, 9.450
56.940, 10.456
56.950, 12.463
56.960, 11.469
56.970, 17.475
56.980, 31.481
56.990, 8.488
57.000, 24.494
57.010, 16.500
57.020, 25.506
57.030, 8.512
57.040, 2.482
57.050, 6.522
57.060, 13.526
57.070, 14.530
57.080, 12.534
57.090, 7.538
57.100, 4.542
57.110, 2.546
57.120, 8.550
57.130, 14.554
57.140, 16.558
57.150, 18.561
57.160, 4.565
57.170, 8.569
57.180, 9.572
57.190, 18.575
57.200, 16.579
57.210, 9.582
57.220, 5.585
57.230, 24.588
57.240, 7.591
57.250, 4.594
57.260, 10.548
57.270, 11.551
57.280, 3.553
57.290, 4.556
57.300, 12.559
57.310, 5.561
57.320, 2.564
57.330, 13.566
57.340, 14.569
57.350, 12.571
57.360, 6.573
57.370, 7.575
57.380, 10.578
57.390, 16.580
57.400, 0.285
57.410, 3.287
57.420, 23.290
57.430, 10.291
57.440, 9.293
57.450, 13.297
57.460, 7.300
57.470, 15.303
57.480, 0.306
57.490, 6.454
57.500, 1.458
57.510, 5.461
57.520, 0.534
57.530, 4.668
57.540, 15.672
57.550, 3.675
57.560, 1.321
57.570, 8.682
57.580, 17.685
57.590, 0.313
57.600, 5.771
57.610, 10.773
57.620, 12.047
57.630, 20.050
57.640, 0.947
57.650, 7.055
57.660, 11.135
57.670, 6.136
57.680, 6.138
57.690, 10.140
57.700, 3.141
57.710, 14.804
57.720, 7.806
57.730, 1.807
57.740, 3.808
57.750, 20.811
57.760, 4.814
57.770, 5.184
57.780, 0.184
57.790, 0.185
57.800, 6.813
57.810, 18.796
57.820, 3.205
57.830, 6.792
57.840, 13.788
57.850, 6.785
57.860, 5.781
57.870, 15.754
57.880, 11.751
57.890, 1.429
57.900, 7.425
57.910, 6.422
57.920, 18.418
57.930, 16.414
57.940, 20.410
57.950, 10.406
57.960, 20.402
57.970, 15.398
57.980, 9.394
57.990, 5.390
58.000, 15.386
58.010, 8.381
58.020, 12.377
58.030, 6.372
58.040, 6.367
58.050, 18.363
58.060, 14.358
58.070, 12.353
58.080, 23.348
58.090, 7.218
58.100, 21.213
58.110, 12.208
58.120, 26.202
58.130, 37.197
58.140, 52.191
58.150, 48.186
58.160, 40.180
58.170, 55.174
58.180, 23.168
58.190, 36.163
58.200, 22.157
58.210, 11.150
58.220, 14.144
58.230, 14.138
58.240, 9.948
58.250, 16.942
58.260, 17.936
58.270, 18.929
58.280, 20.923
58.290, 20.916
58.300, 22.909
58.310, 27.903
58.320, 26.896
58.330, 31.889
58.340, 12.882
58.350, 11.875
58.360, 25.868
58.370, 31.861
58.380, 11.854
58.390, 13.847
58.400, 16.840
58.410, 11.833
58.420, 22.825
58.430, 20.818
58.440, 19.810
58.450, 30.803
58.460, 20.796
58.470, 8.788
58.480, 8.781
58.490, 20.773
58.500, 17.766
58.510, 11.758
58.520, 5.751
58.530, 4.743
58.540, 11.736
58.550, 3.728
58.560, 19.720
58.570, 8.712
58.580, 19.705
58.590, 27.697
58.600, 18.685
58.610, 16.679
58.620, 5.672
58.630, 18.666
58.640, 1.981
58.650, 12.975
58.660, 22.968
58.670, 9.961
58.680, 2.050
58.690, 15.144
58.700, 4.136
58.710, 6.330
58.720, 2.736
58.730, 11.254
58.740, 10.244
58.750, 14.234
58.760, 10.111
58.770, 1.101
58.780, 13.091
58.790, 0.969
58.800, 7.020
58.810, 3.991
58.820, 5.344
58.830, 2.331
58.840, 5.217
58.850, 0.796
58.860, 1.189
58.870, 20.175
58.880, 17.161
58.890, 13.146
58.900, 9.135
58.910, 4.122
58.920, 11.109
58.930, 2.136
58.940, 5.124
58.950, 15.111
58.960, 6.099
58.970, 0.727
58.980, 5.670
58.990, 3.612
59.000, 11.599
59.010, 3.748
59.020, 16.501
59.030, 2.488
59.040, 10.476
59.050, 14.465
59.060, 2.547
59.070, 17.484
59.080, 24.471
59.090, 16.459
59.100, 23.448
59.110, 23.436
59.120, 22.424
59.130, 19.412
59.140, 16.401
59.150, 26.389
59.160, 36.377
59.170, 22.366
59.180, 16.354
59.190, 22.343
59.200, 9.331
59.210, 31.319
59.220, 6.308
59.230, 18.296
59.240, 29.285
59.250, 25.273
59.260, 28.262
59.270, 28.251
59.280, 34.239
59.290, 34.228
59.300, 30.218
59.310, 30.207
59.320, 28.196
59.330, 22.186
59.340, 25.175
59.350, 9.164
59.360, 31.154
59.370, 21.143
59.380, 26.133
59.390, 9.123
59.400, 13.112
59.410, 13.102
59.420, 25.092
59.430, 24.081
59.440, 18.072
59.450, 14.063
59.460, 18.054
59.470, 18.044
59.480, 21.035
59.490, 1.026
59.500, 9.017
59.510, 10.008
59.520, 11.999
59.530, 12.991
59.540, 10.982
59.550, 10.973
59.560, 6.965
59.570, 2.956
59.580, 2.948
59.590, 10.939
59.600, 6.931
59.610, 15.923
59.620, 6.915
59.630, 7.907
59.640, 8.899
59.650, 4.891
59.660, 1.883
59.670, 2.875
59.680, 6.867
59.690, 6.860
59.700, 3.852
59.710, 3.845
59.720, 1.838
59.730, 4.830
59.740, 6.823
59.750, 6.816
59.760, 5.809
59.770, 2.802
59.780, 0.796
59.790, 2.860
59.800, 19.855
59.810, 6.849
59.820, 10.843
59.830, 5.161
59.840, 8.832
59.850, 3.826
59.860, 6.819
59.870, 6.813
59.880, 3.338
59.890, 1.655
59.900, 3.353
59.910, 1.638
59.920, 9.432
59.930, 0.426
59.940, 21.419
59.950, 6.413
59.960, 6.408
59.970, 2.403
59.980, 18.398
59.990, 3.311
60.000, 8.306
60.010, 5.970
60.020, 3.023
60.030, 1.016
60.040, 12.012
60.050, 21.929
60.060, 3.924
60.070, 16.920
60.080, 0.916
60.090, 0.088
60.100, 1.908
60.110, 9.996
60.120, 1.008
60.130, 12.988
60.140, 10.985
60.150, 7.981
60.160, 14.978
60.170, 0.023
60.180, 22.976
60.190, 3.975
60.200, 3.026
60.210, 10.972
60.220, 16.972
60.230, 7.971
60.240, 0.030
60.250, 5.970
60.260, 1.201
60.270, 8.798
60.280, 17.798
60.290, 14.798
60.300, 10.797
60.310, 28.797
60.320, 12.797
60.330, 28.798
60.340, 35.798
60.350, 59.798
60.360, 62.799
60.370, 45.800
60.380, 42.801
60.390, 25.802
60.400, 14.803
60.410, 19.804
60.420, 18.805
60.430, 19.807
60.440, 18.809
60.450, 7.810
60.460, 7.812
60.470, 12.814
60.480, 23.817
60.490, 15.819
60.500, 22.821
60.510, 30.824
60.520, 26.828
60.530, 37.832
60.540, 41.836
60.550, 35.840
60.560, 37.845
60.570, 37.849
60.580, 21.854
60.590, 11.859
60.600, 21.864
60.610, 30.870
60.620, 30.877
60.630, 11.883
60.640, 26.890
60.650, 9.897
60.660, 5.903
60.670, 8.911
60.680, 20.918
60.690, 16.925
60.700, 18.933
60.710, 19.940
60.720, 19.948
60.730, 21.956
60.740, 13.964
60.750, 13.973
60.760, 12.982
60.770, 16.991
60.780, 10.000
60.790, 21.018
60.800, 5.027
60.810, 30.037
60.820, 4.047
60.830, 18.056
60.840, 25.066
60.850, 6.076
60.860, 12.086
60.870, 8.096
60.880, 7.107
60.890, 4.118
60.900, 4.129
60.910, 9.141
60.920, 4.152
60.930, 11.163
60.940, 7.175
60.950, 23.187
60.960, 34.199
60.970, 12.387
60.980, 1.601
60.990, 6.410
61.000, 16.422
61.010, 16.434
61.020, 13.807
61.030, 13.498
61.040, 5.510
61.050, 0.630
61.060, 16.642
61.070, 10.656
61.080, 12.467
61.090, 5.482
61.100, 12.397
61.110, 5.702
61.120, 14.716
61.130, 22.731
61.140, 12.972
61.150, 3.987
61.160, 17.003
61.170, 20.017
61.180, 2.032
61.190, 25.048
61.200, 17.063
61.210, 23.732
61.220, 23.749
61.230, 15.174
61.240, 12.192
61.250, 26.209
61.260, 22.227
61.270, 16.244
61.280, 25.262
61.290, 6.277
61.300, 1.705
61.310, 14.312
61.320, 3.290
61.330, 18.307
61.340, 4.416
61.350, 9.434
61.360, 9.451
61.370, 23.466
61.380, 18.484
61.390, 25.501
61.400, 17.358
61.410, 18.375
61.420, 16.393
61.430, 9.410
61.440, 0.426
61.450, 12.444
61.460, 9.418
61.470, 5.436
61.480, 3.455
61.490, 19.473
61.500, 18.492
61.510, 8.510
61.520, 15.529
61.530, 18.548
61.540, 32.567
61.550, 40.585
61.560, 25.604
61.570, 27.623
61.580, 36.642
61.590, 21.661
61.600, 22.680
61.610, 15.699
61.620, 16.718
61.630, 11.737
61.640, 18.756
61.650, 0.775
61.660, 21.794
61.670, 29.813
61.680, 12.833
61.690, 22.852
61.700, 26.872
61.710, 23.155
61.720, 32.175
61.730, 44.194
61.740, 45.214
61.750, 39.233
61.760, 25.253
61.770, 22.272
61.780, 12.292
61.790, 22.448
61.800, 24.467
61.810, 14.619
61.820, 21.639
61.830, 4.659
61.840, 22.679
61.850, 20.699
61.860, 15.720
61.870, 19.740
61.880, 20.760
61.890, 18.782
61.900, 12.803
61.910, 29.825
61.920, 11.847
61.930, 14.981
61.940, 3.003
61.950, 16.025
61.960, 15.048
61.970, 9.070
61.980, 0.092
61.990, 7.114
62.000, 7.136
62.010, 13.158
62.020, 5.180
62.030, 10.201
62.040, 9.223
62.050, 12.245
62.060, 6.266
62.070, 4.399
62.080, 3.421
62.090, 7.442
62.100, 11.464
62.110, 4.485
62.120, 5.507
62.130, 20.529
62.140, 11.551
62.150, 15.573
62.160, 2.406
62.170, 4.614
62.180, 8.564
62.190, 3.584
62.200, 10.605
62.210, 5.375
62.220, 8.642
62.230, 15.660
62.240, 1.321
62.250, 10.696
62.260, 0.713
62.270, 5.730
62.280, 0.748
62.290, 1.234
62.300, 4.217
62.310, 5.799
62.320, 4.814
62.330, 3.172
62.340, 7.841
62.350, 0.854
62.360, 14.867
62.370, 3.880
62.380, 4.892
62.390, 2.905
62.400, 5.917
62.410, 7.931
62.420, 6.055
62.430, 9.955
62.440, 1.965
62.450, 1.975
62.460, 1.985
62.470, 11.995
62.480, 10.004
62.490, 8.014
62.500, 0.932
62.510, 14.941
62.520, 4.951
62.530, 1.039
62.540, 17.969
62.550, 11.978
62.560, 4.986
62.570, 16.995
62.580, 9.003
62.590, 1.011
62.600, 11.020
62.610, 14.029
62.620, 3.037
62.630, 13.046
62.640, 10.054
62.650, 13.063
62.660, 6.071
62.670, 7.080
62.680, 15.088
62.690, 10.096
62.700, 13.104
62.710, 9.112
62.720, 5.120
62.730, 5.128
62.740, 11.136
62.750, 11.144
62.760, 11.152
62.770, 10.159
62.780, 7.167
62.790, 18.175
62.800, 16.183
62.810, 18.191
62.820, 8.199
62.830, 23.206
62.840, 11.214
62.850, 4.221
62.860, 9.229
62.870, 13.236
62.880, 21.290
62.890, 19.297
62.900, 3.695
62.910, 6.310
62.920, 4.315
62.930, 1.321
62.940, 19.326
62.950, 17.332
62.960, 14.337
62.970, 7.342
62.980, 1.653
62.990, 2.351
63.000, 1.528
63.010, 7.474
63.020, 19.476
63.030, 9.479
63.040, 29.481
63.050, 11.543
63.060, 6.545
63.070, 3.547
63.080, 2.861
63.090, 15.863
63.100, 13.864
63.110, 25.054
63.120, 0.945
63.130, 6.055
63.140, 22.056
63.150, 26.057
63.160, 14.057
63.170, 18.058
63.180, 26.049
63.190, 12.049
63.200, 25.050
63.210, 9.050
63.220, 11.050
63.230, 23.050
63.240, 13.050
63.250, 11.050
63.260, 0.950
63.270, 16.049
63.280, 12.047
63.290, 8.045
63.300, 21.043
63.310, 10.173
63.320, 21.171
63.330, 12.168
63.340, 17.166
63.350, 13.163
63.360, 17.985
63.370, 10.982
63.380, 10.049
63.390, 18.046
63.400, 8.044
63.410, 9.680
63.420, 21.677
63.430, 14.675
63.440, 9.564
63.450, 11.561
63.460, 9.556
63.470, 11.553
63.480, 5.548
63.490, 1.441
63.500, 8.146
63.510, 10.142
63.520, 14.139
63.530, 21.910
63.540, 15.907
63.550, 5.903
63.560, 1.900
63.570, 15.897
63.580, 4.895
63.590, 16.892
63.600, 10.889
63.610, 9.887
63.620, 12.475
63.630, 4.472
63.640, 7.469
63.650, 12.467
63.660, 4.464
63.670, 10.461
63.680, 11.457
63.690, 10.454
63.700, 4.451
63.710, 12.448
63.720, 3.445
63.730, 11.350
63.740, 19.347
63.750, 15.343
63.760, 32.340
63.770, 40.337
63.780, 42.334
63.790, 53.330
63.800, 48.326
63.810, 23.323
63.820, 32.320
63.830, 16.316
63.840, 17.312
63.850, 12.309
63.860, 10.305
63.870, 8.303
63.880, 11.300
63.890, 4.298
63.900, 25.296
63.910, 1.293
63.920, 24.291
63.930, 7.288
63.940, 22.285
63.950, 21.286
63.960, 23.283
63.970, 25.406
63.980, 24.403
63.990, 15.400
64.000, 15.397
64.010, 0.394
64.020, 2.391
64.030, 8.392
64.040, 19.389
64.050, 15.385
64.060, 3.382
64.070, 0.621
64.080, 9.375
64.090, 3.565
64.100, 10.296
64.110, 8.292
64.120, 11.358
64.130, 16.353
64.140, 13.349
64.150, 19.345
64.160, 6.340
64.170, 20.336
64.180, 4.195
64.190, 1.810
64.200, 16.053
64.210, 13.047
64.220, 9.041
64.230, 9.035
64.240, 0.971
64.250, 23.023
64.260, 6.016
64.270, 4.990
64.280, 15.001
64.290, 7.991
64.300, 3.018
64.310, 3.971
64.320, 6.848
64.330, 14.125
64.340, 8.115
64.350, 6.105
64.360, 7.095
64.370, 7.085
64.380, 12.076
64.390, 2.156
64.400, 14.146
64.410, 15.137
64.420, 27.127
64.430, 14.117
64.440, 8.107
64.450, 16.097
64.460, 17.975
64.470, 6.965
64.480, 7.955
64.490, 21.945
64.500, 2.065
64.510, 2.924
64.520, 7.912
64.530, 14.901
64.540, 4.890
64.550, 6.878
64.560, 4.867
64.570, 1.043
64.580, 20.946
64.590, 4.934
64.600, 12.923
64.610, 17.913
64.620, 8.903
64.630, 23.893
64.640, 7.884
64.650, 8.874
64.660, 0.865
64.670, 24.855
64.680, 34.846
64.690, 29.837
64.700, 28.829
64.710, 23.991
64.720, 35.027
64.730, 36.020
64.740, 30.013
64.750, 52.006
64.760, 53.170
64.770, 86.163
64.780, 119.156
64.790, 152.195
64.800, 156.188
64.810, 199.181
64.820, 197.176
64.830, 150.171
64.840, 144.166
64.850, 106.160
64.860, 68.155
64.870, 66.150
64.880, 42.144
64.890, 44.139
64.900, 43.134
64.910, 29.128
64.920, 45.123
64.930, 37.118
64.940, 67.113
64.950, 56.108
64.960, 63.103
64.970, 80.098
64.980, 73.093
64.990, 87.088
65.000, 84.083
65.010, 97.077
65.020, 65.072
65.030, 67.067
65.040, 52.062
65.050, 28.057
65.060, 32.418
65.070, 18.412
65.080, 26.407
65.090, 22.402
65.100, 13.397
65.110, 16.391
65.120, 16.386
65.130, 1.381
65.140, 0.376
65.150, 9.370
65.160, 1.635
65.170, 15.358
65.180, 14.351
65.190, 14.345
65.200, 6.338
65.210, 10.337
65.220, 0.331
65.230, 11.324
65.240, 5.317
65.250, 22.310
65.260, 9.303
65.270, 15.250
65.280, 2.757
65.290, 2.234
65.300, 4.227
65.310, 0.781
65.320, 8.211
65.330, 7.203
65.340, 6.194
65.350, 6.186
65.360, 17.178
65.370, 13.170
65.380, 6.164
65.390, 4.040
65.400, 18.035
65.410, 9.029
65.420, 9.024
65.430, 17.019
65.440, 0.953
65.450, 8.948
65.460, 7.943
65.470, 10.625
65.480, 9.620
65.490, 4.615
65.500, 10.421
65.510, 1.416
65.520, 4.588
65.530, 4.726
65.540, 3.719
65.550, 9.712
65.560, 11.705
65.570, 5.699
65.580, 1.308
65.590, 5.684
65.600, 1.677
65.610, 11.669
65.620, 22.662
65.630, 1.655
65.640, 8.647
65.650, 6.640
65.660, 5.633
65.670, 8.626
65.680, 6.620
65.690, 17.613
65.700, 0.475
65.710, 7.469
65.720, 17.462
65.730, 0.456
65.740, 4.449
65.750, 20.443
65.760, 1.563
65.770, 9.361
65.780, 11.354
65.790, 13.346
65.800, 5.340
65.810, 23.334
65.820, 18.327
65.830, 13.321
65.840, 19.315
65.850, 12.310
65.860, 8.304
65.870, 20.299
65.880, 15.294
65.890, 0.289
65.900, 2.716
65.910, 0.722
65.920, 5.271
65.930, 8.264
65.940, 4.257
65.950, 2.749
65.960, 5.245
65.970, 8.239
65.980, 0.767
65.990, 15.227
66.000, 2.220
66.010, 30.214
66.020, 9.208
66.030, 9.202
66.040, 2.196
66.050, 11.190
66.060, 12.183
66.070, 9.177
66.080, 8.172
66.090, 11.166
66.100, 9.160
66.110, 0.154
66.120, 13.148
66.130, 6.142
66.140, 18.137
66.150, 3.131
66.160, 7.126
66.170, 1.121
66.180, 15.117
66.190, 16.112
66.200, 18.107
66.210, 5.102
66.220, 8.098
66.230, 12.093
66.240, 1.089
66.250, 5.915
66.260, 19.077
66.270, 8.070
66.280, 6.062
66.290, 6.055
66.300, 16.048
66.310, 5.041
66.320, 8.033
66.330, 14.026
66.340, 19.016
66.350, 7.010
66.360, 8.877
66.370, 2.871
66.380, 6.864
66.390, 1.857
66.400, 0.149
66.410, 12.844
66.420, 5.833
66.430, 11.827
66.440, 14.821
66.450, 14.815
66.460, 3.808
66.470, 23.803
66.480, 19.603
66.490, 20.597
66.500, 3.592
66.510, 13.517
66.520, 5.512
66.530, 8.506
66.540, 3.501
66.550, 0.496
66.560, 4.491
66.570, 24.840
66.580, 14.835
66.590, 15.870
66.600, 22.866
66.610, 8.862
66.620, 7.895
66.630, 17.892
66.640, 22.888
66.650, 8.885
66.660, 4.881
66.670, 18.879
66.680, 15.878
66.690, 1.876
66.700, 11.875
66.710, 11.874
66.720, 5.413
66.730, 18.585
66.740, 17.582
66.750, 12.580
66.760, 12.578
66.770, 7.575
66.780, 22.484
66.790, 35.482
66.800, 13.481
66.810, 11.479
66.820, 16.478
66.830, 9.477
66.840, 14.476
66.850, 10.475
66.860, 20.474
66.870, 6.474
66.880, 16.473
66.890, 24.472
66.900, 14.473
66.910, 10.473
66.920, 16.473
66.930, 8.474
66.940, 20.474
66.950, 16.475
66.960, 5.375
66.970, 22.376
66.980, 9.377
66.990, 15.518
67.000, 31.520
67.010, 14.521
67.020, 19.523
67.030, 15.536
67.040, 24.737
67.050, 9.739
67.060, 14.741
67.070, 17.743
67.080, 13.745
67.090, 2.747
67.100, 18.580
67.110, 20.539
67.120, 15.541
67.130, 19.544
67.140, 25.677
67.150, 16.890
67.160, 19.892
67.170, 18.895
67.180, 5.852
67.190, 4.855
67.200, 14.861
67.210, 17.864
67.220, 27.867
67.230, 16.872
67.240, 11.877
67.250, 13.882
67.260, 28.887
67.270, 3.892
67.280, 14.897
67.290, 20.902
67.300, 20.909
67.310, 20.915
67.320, 13.922
67.330, 19.929
67.340, 23.936
67.350, 18.103
67.360, 10.110
67.370, 8.118
67.380, 25.125
67.390, 20.133
67.400, 26.142
67.410, 17.151
67.420, 2.159
67.430, 17.168
67.440, 25.177
67.450, 21.820
67.460, 13.829
67.470, 11.838
67.480, 17.847
67.490, 12.856
67.500, 14.867
67.510, 16.877
67.520, 7.888
67.530, 23.898
67.540, 18.909
67.550, 6.920
67.560, 20.932
67.570, 1.943
67.580, 27.955
67.590, 28.967
67.600, 9.972
67.610, 18.984
67.620, 14.996
67.630, 11.009
67.640, 24.021
67.650, 23.034
67.660, 14.047
67.670, 9.061
67.680, 19.075
67.690, 1.089
67.700, 9.104
67.710, 10.119
67.720, 10.134
67.730, 4.149
67.740, 10.164
67.750, 12.179
67.760, 5.806
67.770, 19.206
67.780, 0.781
67.790, 0.231
67.800, 12.243
67.810, 0.745
67.820, 6.266
67.830, 6.278
67.840, 19.290
67.850, 14.302
67.860, 5.314
67.870, 3.326
67.880, 12.339
67.890, 10.351
67.900, 7.363
67.910, 9.560
67.920, 4.253
67.930, 1.267
67.940, 5.280
67.950, 18.294
67.960, 17.308
67.970, 5.442
67.980, 5.456
67.990, 4.470
68.000, 5.485
68.010, 1.499
68.020, 22.514
68.030, 14.528
68.040, 10.543
68.050, 10.558
68.060, 7.572
68.070, 7.587
68.080, 2.602
68.090, 11.617
68.100, 6.632
68.110, 9.647
68.120, 16.661
68.130, 8.676
68.140, 0.691
68.150, 4.706
68.160, 16.722
68.170, 7.737
68.180, 2.247
68.190, 1.767
68.200, 12.791
68.210, 14.806
68.220, 0.180
68.230, 3.166
68.240, 9.847
68.250, 6.859
68.260, 3.872
68.270, 8.884
68.280, 7.897
68.290, 8.910
68.300, 3.923
68.310, 13.937
68.320, 6.950
68.330, 2.036
68.340, 6.024
68.350, 10.986
68.360, 11.996
68.370, 10.006
68.380, 9.017
68.390, 0.027
68.400, 6.037
68.410, 8.047
68.420, 15.384
68.430, 3.394
68.440, 8.404
68.450, 15.414
68.460, 5.424
68.470, 14.435
68.480, 2.445
68.490, 15.781
68.500, 12.805
68.510, 1.815
68.520, 2.825
68.530, 11.836
68.540, 2.154
68.550, 5.855
68.560, 15.864
68.570, 1.874
68.580, 6.146
68.590, 17.155
68.600, 12.165
68.610, 17.174
68.620, 11.183
68.630, 3.193
68.640, 5.202
68.650, 12.214
68.660, 10.225
68.670, 2.237
68.680, 13.248
68.690, 16.516
68.700, 27.527
68.710, 12.539
68.720, 6.562
68.730, 13.574
68.740, 39.587
68.750, 26.599
68.760, 29.612
68.770, 31.624
68.780, 20.636
68.790, 22.648
68.800, 17.660
68.810, 11.672
68.820, 19.684
68.830, 12.696
68.840, 6.895
68.850, 11.907
68.860, 6.918
68.870, 15.930
68.880, 18.942
68.890, 3.953
68.900, 14.965
68.910, 9.977
68.920, 14.988
68.930, 15.000
68.940, 15.011
68.950, 21.022
68.960, 24.679
68.970, 6.690
68.980, 6.662
68.990, 23.673
69.000, 11.684
69.010, 13.657
69.020, 10.668
69.030, 15.678
69.040, 15.689
69.050, 23.699
69.060, 15.709
69.070, 4.719
69.080, 12.729
69.090, 4.740
69.100, 2.249
69.110, 7.760
69.120, 22.770
69.130, 2.780
69.140, 4.791
69.150, 7.801
69.160, 1.189
69.170, 5.820
69.180, 2.828
69.190, 11.837
69.200, 4.845
69.210, 10.854
69.220, 3.862
69.230, 22.870
69.240, 11.878
69.250, 13.886
69.260, 19.894
69.270, 16.902
69.280, 17.910
69.290, 31.917
69.300, 22.925
69.310, 21.932
69.320, 18.939
69.330, 10.946
69.340, 18.953
69.350, 11.960
69.360, 11.967
69.370, 5.974
69.380, 14.841
69.390, 0.847
69.400, 1.854
69.410, 6.860
69.420, 17.855
69.430, 6.662
69.440, 9.668
69.450, 11.673
69.460, 5.679
69.470, 17.685
69.480, 7.691
69.490, 16.696
69.500, 11.702
69.510, 17.707
69.520, 2.713
69.530, 19.588
69.540, 8.212
69.550, 5.217
69.560, 9.222
69.570, 14.227
69.580, 15.232
69.590, 9.234
69.600, 4.239
69.610, 4.756
69.620, 4.245
69.630, 1.247
69.640, 4.249
69.650, 15.250
69.660, 5.252
69.670, 8.253
69.680, 4.746
69.690, 0.253
69.700, 7.251
69.710, 5.249
69.720, 6.371
69.730, 12.369
69.740, 3.207
69.750, 6.268
69.760, 11.265
69.770, 3.737
69.780, 10.258
69.790, 5.253
69.800, 2.323
69.810, 13.318
69.820, 5.313
69.830, 9.308
69.840, 8.505
69.850, 22.500
69.860, 1.494
69.870, 3.489
69.880, 3.517
69.890, 12.475
69.900, 9.467
69.910, 0.800
69.920, 8.791
69.930, 12.783
69.940, 3.774
69.950, 11.765
69.960, 8.756
69.970, 5.747
69.980, 3.738
69.990, 11.729
70.000, 7.753
70.010, 2.744
70.020, 9.734
70.030, 2.274
70.040, 10.716
70.050, 10.706
70.060, 12.695
70.070, 13.782
70.080, 15.773
70.090, 18.764
70.100, 11.754
70.110, 5.745
70.120, 18.735
70.130, 17.725
70.140, 19.715
70.150, 14.705
70.160, 2.697
70.170, 11.688
70.180, 1.679
70.190, 4.670
70.200, 14.661
70.210, 22.653
70.220, 5.644
70.230, 9.637
70.240, 10.629
70.250, 19.620
70.260, 11.612
70.270, 10.604
70.280, 17.816
70.290, 9.807
70.300, 12.614
70.310, 11.605
70.320, 14.596
70.330, 20.587
70.340, 12.578
70.350, 14.569
70.360, 23.440
70.370, 12.431
70.380, 13.422
70.390, 26.412
70.400, 27.402
70.410, 9.393
70.420, 23.383
70.430, 28.373
70.440, 19.363
70.450, 25.353
70.460, 27.343
70.470, 22.333
70.480, 22.323
70.490, 23.313
70.500, 25.302
70.510, 17.292
70.520, 25.281
70.530, 25.270
70.540, 19.260
70.550, 26.249
70.560, 29.238
70.570, 21.227
70.580, 23.217
70.590, 24.197
70.600, 18.186
70.610, 13.176
70.620, 14.165
70.630, 19.155
70.640, 19.146
70.650, 19.136
70.660, 25.178
70.670, 16.168
70.680, 17.158
70.690, 21.148
70.700, 8.137
70.710, 21.127
70.720, 20.117
70.730, 6.107
70.740, 11.099
70.750, 18.091
70.760, 22.082
70.770, 14.074
70.780, 11.065
70.790, 6.057
70.800, 16.048
70.810, 12.713
70.820, 12.704
70.830, 11.696
70.840, 6.687
70.850, 5.678
70.860, 4.669
70.870, 12.660
70.880, 12.325
70.890, 1.302
70.900, 9.293
70.910, 1.716
70.920, 11.274
70.930, 21.264
70.940, 0.746
70.950, 7.244
70.960, 8.234
70.970, 25.960
70.980, 0.950
70.990, 1.060
71.000, 7.929
71.010, 5.919
71.020, 13.908
71.030, 3.103
71.040, 0.884
71.050, 13.872
71.060, 2.859
71.070, 7.847
71.080, 9.578
71.090, 8.566
71.100, 5.447
71.110, 4.528
71.120, 2.512
71.130, 9.497
71.140, 10.482
71.150, 11.467
71.160, 2.452
71.170, 5.437
71.180, 1.422
71.190, 0.593
71.200, 6.392
71.210, 12.377
71.220, 15.707
71.230, 8.505
71.240, 15.490
71.250, 13.475
71.260, 1.540
71.270, 6.730
71.280, 14.715
71.290, 5.700
71.300, 1.684
71.310, 12.669
71.320, 16.653
71.330, 11.638
71.340, 11.622
71.350, 9.607
71.360, 14.592
71.370, 15.577
71.380, 18.561
71.390, 12.546
71.400, 21.532
71.410, 4.669
71.420, 10.744
71.430, 10.730
71.440, 8.716
71.450, 3.703
71.460, 9.689
71.470, 3.323
71.480, 11.663
71.490, 5.649
71.500, 14.636
71.510, 7.622
71.520, 15.609
71.530, 13.596
71.540, 22.583
71.550, 5.570
71.560, 19.558
71.570, 5.546
71.580, 20.533
71.590, 11.521
71.600, 13.509
71.610, 17.497
71.620, 5.484
71.630, 5.472
71.640, 3.460
71.650, 10.448
71.660, 19.437
71.670, 6.425
71.680, 14.413
71.690, 1.401
71.700, 14.390
71.710, 7.378
71.720, 8.366
71.730, 6.355
71.740, 15.344
71.750, 10.332
71.760, 4.321
71.770, 4.310
71.780, 10.299
71.790, 8.288
71.800, 8.277
71.810, 7.266
71.820, 7.255
71.830, 11.245
71.840, 0.234
71.850, 0.777
71.860, 13.212
71.870, 12.202
71.880, 3.191
71.890, 1.180
71.900, 15.169
71.910, 0.159
71.920, 2.148
71.930, 7.137
71.940, 4.127
71.950, 20.117
71.960, 7.106
71.970, 12.096
71.980, 12.086
71.990, 17.076
72.000, 18.066
72.010, 27.057
72.020, 29.049
72.030, 16.041
72.040, 26.032
72.050, 25.024
72.060, 39.016
72.070, 58.008
72.080, 49.002
72.090, 64.995
72.100, 54.989
72.110, 34.858
72.120, 33.852
72.130, 27.846
72.140, 14.777
72.150, 26.772
72.160, 9.766
72.170, 27.761
72.180, 8.757
72.190, 11.678
72.200, 10.674
72.210, 22.670
72.220, 9.675
72.230, 23.468
72.240, 21.465
72.250, 27.462
72.260, 13.459
72.270, 28.456
72.280, 45.459
72.290, 27.457
72.300, 39.115
72.310, 20.113
72.320, 33.112
72.330, 13.111
72.340, 7.110
72.350, 16.109
72.360, 4.109
72.370, 13.108
72.380, 16.108
72.390, 8.120
72.400, 4.120
72.410, 5.880
72.420, 4.117
72.430, 3.116
72.440, 2.114
72.450, 15.113
72.460, 4.986
72.470, 0.010
72.480, 16.007
72.490, 13.003
72.500, 5.000
72.510, 3.997
72.520, 3.002
72.530, 6.000
72.540, 8.997
72.550, 15.995
72.560, 19.993
72.570, 1.991
72.580, 5.989
72.590, 3.283
72.600, 2.718
72.610, 1.721
72.620, 3.282
72.630, 5.279
72.640, 19.276
72.650, 11.273
72.660, 2.628
72.670, 9.406
72.680, 0.403
72.690, 9.401
72.700, 12.399
72.710, 9.398
72.720, 13.396
72.730, 11.394
72.740, 5.393
72.750, 15.392
72.760, 3.391
72.770, 17.391
72.780, 10.391
72.790, 11.392
72.800, 23.393
72.810, 19.395
72.820, 9.396
72.830, 21.398
72.840, 26.400
72.850, 17.403
72.860, 12.406
72.870, 3.409
72.880, 11.412
72.890, 17.416
72.900, 8.420
72.910, 15.424
72.920, 3.428
72.930, 12.432
72.940, 17.437
72.950, 12.441
72.960, 11.446
72.970, 10.451
72.980, 22.456
72.990, 15.461
73.000, 28.466
73.010, 26.471
73.020, 27.477
73.030, 21.483
73.040, 23.489
73.050, 39.443
73.060, 30.450
73.070, 17.456
73.080, 14.463
73.090, 19.470
73.100, 14.478
73.110, 20.485
73.120, 9.492
73.130, 20.500
73.140, 16.508
73.150, 9.516
73.160, 21.524
73.170, 21.532
73.180, 6.540
73.190, 7.549
73.200, 3.558
73.210, 14.567
73.220, 3.576
73.230, 12.585
73.240, 3.594
73.250, 6.604
73.260, 18.614
73.270, 19.623
73.280, 17.633
73.290, 8.643
73.300, 13.653
73.310, 6.664
73.320, 14.675
73.330, 12.687
73.340, 5.698
73.350, 20.710
73.360, 7.723
73.370, 3.735
73.380, 9.747
73.390, 7.760
73.400, 0.832
73.410, 0.155
73.420, 17.858
73.430, 9.872
73.440, 5.886
73.450, 10.900
73.460, 6.914
73.470, 0.071
73.480, 12.944
73.490, 7.959
73.500, 15.976
73.510, 6.993
73.520, 3.010
73.530, 6.027
73.540, 10.044
73.550, 3.061
73.560, 5.079
73.570, 15.096
73.580, 0.886
73.590, 12.131
73.600, 0.148
73.610, 1.821
73.620, 9.839
73.630, 2.856
73.640, 26.875
73.650, 15.893
73.660, 10.627
73.670, 5.645
73.680, 9.664
73.690, 8.683
73.700, 5.702
73.710, 0.278
73.720, 4.741
73.730, 8.761
73.740, 19.781
73.750, 1.876
73.760, 8.896
73.770, 2.916
73.780, 5.064
73.790, 8.971
73.800, 8.838
73.810, 0.232
73.820, 2.786
73.830, 3.804
73.840, 12.822
73.850, 6.159
73.860, 4.856
73.870, 12.873
73.880, 9.889
73.890, 15.906
73.900, 10.938
73.910, 13.955
73.920, 14.972
73.930, 7.989
73.940, 8.007
73.950, 18.024
73.960, 18.239
73.970, 10.390
73.980, 2.408
73.990, 7.425
74.000, 13.574
74.010, 8.591
74.020, 6.610
74.030, 11.629
74.040, 6.768
74.050, 6.787
74.060, 18.806
74.070, 0.881
74.080, 4.954
74.090, 6.973
74.100, 14.992
74.110, 1.011
74.120, 11.030
74.130, 5.049
74.140, 4.068
74.150, 6.087
74.160, 10.107
74.170, 1.126
74.180, 7.145
74.190, 9.165
74.200, 13.184
74.210, 9.203
74.220, 3.330
74.230, 10.349
74.240, 5.368
74.250, 5.388
74.260, 17.449
74.270, 7.469
74.280, 3.488
74.290, 5.508
74.300, 13.528
74.310, 15.548
74.320, 6.567
74.330, 10.588
74.340, 12.609
74.350, 0.630
74.360, 5.677
74.370, 6.698
74.380, 8.718
74.390, 28.739
74.400, 14.760
74.410, 5.781
74.420, 9.802
74.430, 9.844
74.440, 3.865
74.450, 2.886
74.460, 0.907
74.470, 19.927
74.480, 12.948
74.490, 19.969
74.500, 4.990
74.510, 7.010
74.520, 19.110
74.530, 14.131
74.540, 11.151
74.550, 23.172
74.560, 11.193
74.570, 9.213
74.580, 20.234
74.590, 0.746
74.600, 1.274
74.610, 18.286
74.620, 19.306
74.630, 3.326
74.640, 17.358
74.650, 6.378
74.660, 9.471
74.670, 11.559
74.680, 7.578
74.690, 13.598
74.700, 6.617
74.710, 20.637
74.720, 14.657
74.730, 23.677
74.740, 10.697
74.750, 9.717
74.760, 11.737
74.770, 11.757
74.780, 5.730
74.790, 11.749
74.800, 7.769
74.810, 22.790
74.820, 9.811
74.830, 5.955
74.840, 9.976
74.850, 11.997
74.860, 10.019
74.870, 10.041
74.880, 10.062
74.890, 21.084
74.900, 4.106
74.910, 5.120
74.920, 9.141
74.930, 13.163
74.940, 0.816
74.950, 1.205
74.960, 8.225
74.970, 2.246
74.980, 0.029
74.990, 10.991
75.000, 12.012
75.010, 13.084
75.020, 9.105
75.030, 4.126
75.040, 8.147
75.050, 13.810
75.060, 7.831
75.070, 1.852
75.080, 12.872
75.090, 0.107
75.100, 14.913
75.110, 14.934
75.120, 1.954
75.130, 21.974
75.140, 0.994
75.150, 2.986
75.160, 1.968
75.170, 5.049
75.180, 10.066
75.190, 1.917
75.200, 9.099
75.210, 11.306
75.220, 3.321
75.230, 1.664
75.240, 10.351
75.250, 15.365
75.260, 0.621
75.270, 0.607
75.280, 3.405
75.290, 11.418
75.300, 17.431
75.310, 5.444
75.320, 4.456
75.330, 4.469
75.340, 6.481
75.350, 8.493
75.360, 8.506
75.370, 18.518
75.380, 0.530
75.390, 3.542
75.400, 7.555
75.410, 1.432
75.420, 16.580
75.430, 11.592
75.440, 2.604
75.450, 0.384
75.460, 16.627
75.470, 8.638
75.480, 0.650
75.490, 0.661
75.500, 5.671
75.510, 10.682
75.520, 3.944
75.530, 12.954
75.540, 14.967
75.550, 0.022
75.560, 4.988
75.570, 6.998
75.580, 6.009
75.590, 12.019
75.600, 3.028
75.610, 16.038
75.620, 0.048
75.630, 6.057
75.640, 10.067
75.650, 12.076
75.660, 18.085
75.670, 1.094
75.680, 11.103
75.690, 5.111
75.700, 14.120
75.710, 0.872
75.720, 14.136
75.730, 14.144
75.740, 14.151
75.750, 17.159
75.760, 1.166
75.770, 10.173
75.780, 11.180
75.790, 9.128
75.800, 12.135
75.810, 15.142
75.820, 7.149
75.830, 0.156
75.840, 10.162
75.850, 0.832
75.860, 0.826
75.870, 13.179
75.880, 6.184
75.890, 8.190
75.900, 6.316
75.910, 7.322
75.920, 9.327
75.930, 7.378
75.940, 3.385
75.950, 9.392
75.960, 1.399
75.970, 7.406
75.980, 13.413
75.990, 1.420
76.000, 7.427
76.010, 6.434
76.020, 1.560
76.030, 9.446
76.040, 7.451
76.050, 7.456
76.060, 8.461
76.070, 1.466
76.080, 9.471
76.090, 4.476
76.100, 8.481
76.110, 15.486
76.120, 17.491
76.130, 7.495
76.140, 1.424
76.150, 13.429
76.160, 2.433
76.170, 13.437
76.180, 1.425
76.190, 8.430
76.200, 0.565
76.210, 6.440
76.220, 11.445
76.230, 2.449
76.240, 12.453
76.250, 6.459
76.260, 1.465
76.270, 9.471
76.280, 14.476
76.290, 10.466
76.300, 2.471
76.310, 4.477
76.320, 6.482
76.330, 5.487
76.340, 8.492
76.350, 8.299
76.360, 7.170
76.370, 14.175
76.380, 7.179
76.390, 11.053
76.400, 2.943
76.410, 7.060
76.420, 2.063
76.430, 10.945
76.440, 18.948
76.450, 10.951
76.460, 5.898
76.470, 8.847
76.480, 10.850
76.490, 10.853
76.500, 2.856
76.510, 0.859
76.520, 5.862
76.530, 6.865
76.540, 15.867
76.550, 12.870
76.560, 8.873
76.570, 4.876
76.580, 5.878
76.590, 16.175
76.600, 7.177
76.610, 15.073
76.620, 14.075
76.630, 2.078
76.640, 15.080
76.650, 6.041
76.660, 2.043
76.670, 5.045
76.680, 6.047
76.690, 3.049
76.700, 11.051
76.710, 3.947
76.720, 23.053
76.730, 0.104
76.740, 10.104
76.750, 12.077
76.760, 16.077
76.770, 5.077
76.780, 7.077
76.790, 1.077
76.800, 11.077
76.810, 10.077
76.820, 7.055
76.830, 4.055
76.840, 6.055
76.850, 14.055
76.860, 9.054
76.870, 13.055
76.880, 6.055
76.890, 13.055
76.900, 1.056
76.910, 9.977
76.920, 4.977
76.930, 7.977
76.940, 15.978
76.950, 1.978
76.960, 1.978
76.970, 20.978
76.980, 10.978
76.990, 7.979
77.000, 16.979
77.010, 3.979
77.020, 3.980
77.030, 6.967
77.040, 9.968
77.050, 6.894
77.060, 14.822
77.070, 8.823
77.080, 3.108
77.090, 1.891
77.100, 14.109
77.110, 7.109
77.120, 0.478
77.130, 8.522
77.140, 6.521
77.150, 1.521
77.160, 9.520
77.170, 13.520
77.180, 10.520
77.190, 5.520
77.200, 7.520
77.210, 15.519
77.220, 12.396
77.230, 13.396
77.240, 6.396
77.250, 7.395
77.260, 13.395
77.270, 16.395
77.280, 12.426
77.290, 5.426
77.300, 13.427
77.310, 21.428
77.320, 12.429
77.330, 6.430
77.340, 7.431
77.350, 9.432
77.360, 2.433
77.370, 7.434
77.380, 16.435
77.390, 8.436
77.400, 1.381
77.410, 2.382
77.420, 9.383
77.430, 3.384
77.440, 7.385
77.450, 8.386
77.460, 10.387
77.470, 16.388
77.480, 6.388
77.490, 14.390
77.500, 9.391
77.510, 9.392
77.520, 5.393
77.530, 20.394
77.540, 14.395
77.550, 13.397
77.560, 17.400
77.570, 8.402
77.580, 19.404
77.590, 7.407
77.600, 16.219
77.610, 22.222
77.620, 10.225
77.630, 27.380
77.640, 4.383
77.650, 10.386
77.660, 4.390
77.670, 6.394
77.680, 10.398
77.690, 7.401
77.700, 14.405
77.710, 8.409
77.720, 10.413
77.730, 5.416
77.740, 14.420
77.750, 1.424
77.760, 6.428
77.770, 5.431
77.780, 4.565
77.790, 18.436
77.800, 10.437
77.810, 9.439
77.820, 9.440
77.830, 0.442
77.840, 16.443
77.850, 6.445
77.860, 1.447
77.870, 3.449
77.880, 9.450
77.890, 4.452
77.900, 6.454
77.910, 9.205
77.920, 0.793
77.930, 8.206
77.940, 4.208
77.950, 3.209
77.960, 4.311
77.970, 3.313
77.980, 6.314
77.990, 12.316
78.000, 5.318
78.010, 5.319
78.020, 2.321
78.030, 8.323
78.040, 6.325
78.050, 9.327
78.060, 6.490
78.070, 13.492
78.080, 0.494
78.090, 3.496
78.100, 22.498
78.110, 7.501
78.120, 10.503
78.130, 6.505
78.140, 4.508
78.150, 8.510
78.160, 15.513
78.170, 13.515
78.180, 8.517
78.190, 10.520
78.200, 11.522
78.210, 17.524
78.220, 3.527
78.230, 21.529
78.240, 9.532
78.250, 4.697
78.260, 8.700
78.270, 4.297
78.280, 4.703
78.290, 8.630
78.300, 19.631
78.310, 6.369
78.320, 3.585
78.330, 2.582
78.340, 12.579
78.350, 8.576
78.360, 7.697
78.370, 2.694
78.380, 0.695
78.390, 5.692
78.400, 1.689
78.410, 9.686
78.420, 9.684
78.430, 11.681
78.440, 5.679
78.450, 1.677
78.460, 11.799
78.470, 0.204
78.480, 6.793
78.490, 15.979
78.500, 7.976
78.510, 3.974
78.520, 3.971
78.530, 8.968
78.540, 7.965
78.550, 21.962
78.560, 12.966
78.570, 5.963
78.580, 3.960
78.590, 4.957
78.600, 1.954
78.610, 13.952
78.620, 15.949
78.630, 1.946
78.640, 12.944
78.650, 10.941
78.660, 3.938
78.670, 8.935
78.680, 4.997
78.690, 6.995
78.700, 10.992
78.710, 4.989
78.720, 9.986
78.730, 9.991
78.740, 12.988
78.750, 7.985
78.760, 11.982
78.770, 12.980
78.780, 9.977
78.790, 8.974
78.800, 16.972
78.810, 9.970
78.820, 2.033
78.830, 14.964
78.840, 18.960
78.850, 12.957
78.860, 13.953
78.870, 19.950
78.880, 2.947
78.890, 9.944
78.900, 12.942
78.910, 15.939
78.920, 11.937
78.930, 11.935
78.940, 11.934
78.950, 6.932
78.960, 6.930
78.970, 5.928
78.980, 9.632
78.990, 16.631
79.000, 7.630
79.010, 9.629
79.020, 7.628
79.030, 8.628
79.040, 14.627
79.050, 10.626
79.060, 2.626
79.070, 6.626
79.080, 3.626
79.090, 7.626
79.100, 10.626
79.110, 3.667
79.120, 5.618
79.130, 3.619
79.140, 11.620
79.150, 1.379
79.160, 3.621
79.170, 7.621
79.180, 14.621
79.190, 2.622
79.200, 13.622
79.210, 23.622
79.220, 5.622
79.230, 13.622
79.240, 11.665
79.250, 2.334
79.260, 7.664
79.270, 15.663
79.280, 11.662
79.290, 11.661
79.300, 20.659
79.310, 5.658
79.320, 8.657
79.330, 0.656
79.340, 11.655
79.350, 0.653
79.360, 3.652
79.370, 9.651
79.380, 6.650
79.390, 6.648
79.400, 6.647
79.410, 12.646
79.420, 5.645
79.430, 11.644
79.440, 2.358
79.450, 8.640
79.460, 5.637
79.470, 9.350
79.480, 0.653
79.490, 10.345
79.500, 16.342
79.510, 18.928
79.520, 1.926
79.530, 12.924
79.540, 9.923
79.550, 2.079
79.560, 19.919
79.570, 0.084
79.580, 9.913
79.590, 5.911
79.600, 13.908
79.610, 10.906
79.620, 7.903
79.630, 8.901
79.640, 11.899
79.650, 2.104
79.660, 25.893
79.670, 9.859
79.680, 3.145
79.690, 4.850
79.700, 12.846
79.710, 21.841
79.720, 3.836
79.730, 6.832
79.740, 6.829
79.750, 0.175
79.760, 16.821
79.770, 10.817
79.780, 6.813
79.790, 12.809
79.800, 12.806
79.810, 14.802
79.820, 4.798
79.830, 3.795
79.840, 0.792
79.850, 5.789
79.860, 14.787
79.870, 1.215
79.880, 28.782
79.890, 28.780
79.900, 6.777
79.910, 7.774
79.920, 0.228
79.930, 17.769
79.940, 15.767
79.950, 7.764
79.960, 9.762
79.970, 13.759
79.980, 24.757
79.990, 21.755
80.000, 13.753
80.010, 13.751
80.020, 9.597
80.030, 16.595
80.040, 19.593
80.050, 14.592
80.060, 5.591
80.070, 8.800
80.080, 14.799
80.090, 1.798
80.100, 1.797
80.110, 8.006
80.120, 19.005
80.130, 6.004
80.140, 2.003
80.150, 11.002
80.160, 6.002
80.170, 4.209
80.180, 12.210
80.190, 6.210
80.200, 6.211
80.210, 9.212
80.220, 5.292
80.230, 5.293
80.240, 14.294
80.250, 10.295
80.260, 13.437
80.270, 12.438
80.280, 8.439
80.290, 11.440
80.300, 0.559
80.310, 14.442
80.320, 2.443
80.330, 5.444
80.340, 14.445
80.350, 16.345
80.360, 6.346
80.370, 0.347
80.380, 6.348
80.390, 9.350
80.400, 13.351
80.410, 20.352
80.420, 15.353
80.430, 0.646
80.440, 17.355
80.450, 12.194
80.460, 11.195
80.470, 6.196
80.480, 9.196
80.490, 1.198
80.500, 15.200
80.510, 11.202
80.520, 4.204
80.530, 3.206
80.540, 6.208
80.550, 10.210
80.560, 6.213
80.570, 6.215
80.580, 9.218
80.590, 16.221
80.600, 4.224
80.610, 13.226
80.620, 13.229
80.630, 10.232
80.640, 27.073
80.650, 11.075
80.660, 21.078
80.670, 11.082
80.680, 2.040
80.690, 17.044
80.700, 18.169
80.710, 12.175
80.720, 9.181
80.730, 12.187
80.740, 19.193
80.750, 20.076
80.760, 28.082
80.770, 26.085
80.780, 22.091
80.790, 25.097
80.800, 11.104
80.810, 20.110
80.820, 9.116
80.830, 11.123
80.840, 20.130
80.850, 6.012
80.860, 6.019
80.870, 4.026
80.880, 13.844
80.890, 11.851
80.900, 19.859
80.910, 7.866
80.920, 13.047
80.930, 0.054
80.940, 21.062
80.950, 21.063
80.960, 9.071
80.970, 11.079
80.980, 13.086
80.990, 10.094
81.000, 22.102
81.010, 26.110
81.020, 21.118
81.030, 20.170
81.040, 15.409
81.050, 10.417
81.060, 20.426
81.070, 7.369
81.080, 5.378
81.090, 17.386
81.100, 5.394
81.110, 5.403
81.120, 10.404
81.130, 1.412
81.140, 7.421
81.150, 8.429
81.160, 6.438
81.170, 11.446
81.180, 14.455
81.190, 6.464
81.200, 13.472
81.210, 0.481
81.220, 9.490
81.230, 6.500
81.240, 18.674
81.250, 10.683
81.260, 3.307
81.270, 7.700
81.280, 6.708
81.290, 16.716
81.300, 3.277
81.310, 15.729
81.320, 18.735
81.330, 16.741
81.340, 7.747
81.350, 6.753
81.360, 3.241
81.370, 7.821
81.380, 1.826
81.390, 0.830
81.400, 5.835
81.410, 1.161
81.420, 12.843
81.430, 4.846
81.440, 17.850
81.450, 2.146
81.460, 3.856
81.470, 3.859
81.480, 11.862
81.490, 3.865
81.500, 7.827
81.510, 6.831
81.520, 19.834
81.530, 19.837
81.540, 12.840
81.550, 18.845
81.560, 2.850
81.570, 4.854
81.580, 4.859
81.590, 7.864
81.600, 10.869
81.610, 5.873
81.620, 11.878
81.630, 8.840
81.640, 1.845
81.650, 5.850
81.660, 8.855
81.670, 5.861
81.680, 12.102
81.690, 5.107
81.700, 14.113
81.710, 9.118
81.720, 11.124
81.730, 9.129
81.740, 12.135
81.750, 4.249
81.760, 15.255
81.770, 15.260
81.780, 17.265
81.790, 16.271
81.800, 1.276
81.810, 2.282
81.820, 7.287
81.830, 6.292
81.840, 10.298
81.850, 16.305
81.860, 13.311
81.870, 17.317
81.880, 11.323
81.890, 1.671
81.900, 15.334
81.910, 2.339
81.920, 10.344
81.930, 10.349
81.940, 8.354
81.950, 14.360
81.960, 11.365
81.970, 4.371
81.980, 8.376
81.990, 15.382
82.000, 9.387
82.010, 17.392
82.020, 0.398
82.030, 19.403
82.040, 6.408
82.050, 8.414
82.060, 8.420
82.070, 5.426
82.080, 0.433
82.090, 12.549
82.100, 4.556
82.110, 2.438
82.120, 6.568
82.130, 6.573
82.140, 15.578
82.150, 7.583
82.160, 12.588
82.170, 20.594
82.180, 11.599
82.190, 22.656
82.200, 6.661
82.210, 4.666
82.220, 0.329
82.230, 3.323
82.240, 8.680
82.250, 18.683
82.260, 6.687
82.270, 10.690
82.280, 25.694
82.290, 7.698
82.300, 7.701
82.310, 11.704
82.320, 5.708
82.330, 7.711
82.340, 8.715
82.350, 11.718
82.360, 9.721
82.370, 10.724
82.380, 7.728
82.390, 14.731
82.400, 8.734
82.410, 12.737
82.420, 4.740
82.430, 2.258
82.440, 10.744
82.450, 7.745
82.460, 22.536
82.470, 14.537
82.480, 7.538
82.490, 11.539
82.500, 11.331
82.510, 12.332
82.520, 14.333
82.530, 3.336
82.540, 1.338
82.550, 0.340
82.560, 0.866
82.570, 5.190
82.580, 9.192
82.590, 10.193
82.600, 4.195
82.610, 13.117
82.620, 20.118
82.630, 9.120
82.640, 9.121
82.650, 7.982
82.660, 13.097
82.670, 11.099
82.680, 14.151
82.690, 1.153
82.700, 9.156
82.710, 10.158
82.720, 0.160
82.730, 7.162
82.740, 12.401
82.750, 10.403
82.760, 10.405
82.770, 12.407
82.780, 8.409
82.790, 11.411
82.800, 20.413
82.810, 22.415
82.820, 4.419
82.830, 14.422
82.840, 4.425
82.850, 9.429
82.860, 0.432
82.870, 3.565
82.880, 20.436
82.890, 17.438
82.900, 15.439
82.910, 2.440
82.920, 6.441
82.930, 12.442
82.940, 1.557
82.950, 30.443
82.960, 16.443
82.970, 6.443
82.980, 7.443
82.990, 4.443
83.000, 3.443
83.010, 13.442
83.020, 4.442
83.030, 3.442
83.040, 8.442
83.050, 12.441
83.060, 0.441
83.070, 16.441
83.080, 3.440
83.090, 2.319
83.100, 14.319
83.110, 14.318
83.120, 7.318
83.130, 9.317
83.140, 1.317
83.150, 1.316
83.160, 5.315
83.170, 8.315
83.180, 13.314
83.190, 17.313
83.200, 10.312
83.210, 1.312
83.220, 7.310
83.230, 12.310
83.240, 4.309
83.250, 6.308
83.260, 7.422
83.270, 11.422
83.280, 1.579
83.290, 10.420
83.300, 18.418
83.310, 13.244
83.320, 21.242
83.330, 9.241
83.340, 15.240
83.350, 22.238
83.360, 4.237
83.370, 3.235
83.380, 0.766
83.390, 19.232
83.400, 7.230
83.410, 19.228
83.420, 8.423
83.430, 18.190
83.440, 6.187
83.450, 12.185
83.460, 7.183
83.470, 8.181
83.480, 4.179
83.490, 4.176
83.500, 5.174
83.510, 0.172
83.520, 13.169
83.530, 16.167
83.540, 10.165
83.550, 5.162
83.560, 18.160
83.570, 11.158
83.580, 9.155
83.590, 11.153
83.600, 8.152
83.610, 13.151
83.620, 7.150
83.630, 3.985
83.640, 9.984
83.650, 4.983
83.660, 15.983
83.670, 4.983
83.680, 11.984
83.690, 11.984
83.700, 4.985
83.710, 11.986
83.720, 3.214
83.730, 3.215
83.740, 7.216
83.750, 10.217
83.760, 0.839
83.770, 13.162
83.780, 16.164
83.790, 8.165
83.800, 13.167
83.810, 12.168
83.820, 14.170
83.830, 12.172
83.840, 1.277
83.850, 1.721
83.860, 16.281
83.870, 0.718
83.880, 19.329
83.890, 9.330
83.900, 11.332
83.910, 1.333
83.920, 8.334
83.930, 3.664
83.940, 13.335
83.950, 9.334
83.960, 8.333
83.970, 14.333
83.980, 5.332
83.990, 21.331
84.000, 0.331
84.010, 17.631
84.020, 0.631
84.030, 7.630
84.040, 8.629
84.050, 0.628
84.060, 6.627
84.070, 7.391
84.080, 12.390
84.090, 18.389
84.100, 8.388
84.110, 16.387
84.120, 14.386
84.130, 1.385
84.140, 11.275
84.150, 4.274
84.160, 7.273
84.170, 7.272
84.180, 4.270
84.190, 3.269
84.200, 7.268
84.210, 15.267
84.220, 5.266
84.230, 11.265
84.240, 11.264
84.250, 7.263
84.260, 9.261
84.270, 9.260
84.280, 5.259
84.290, 14.258
84.300, 4.258
84.310, 11.257
84.320, 7.257
84.330, 3.256
84.340, 16.255
84.350, 18.255
84.360, 11.254
84.370, 6.253
84.380, 14.253
84.390, 6.252
84.400, 15.251
84.410, 6.250
84.420, 8.250
84.430, 6.249
84.440, 7.249
84.450, 1.751
84.460, 5.423
84.470, 14.422
84.480, 4.313
84.490, 7.313
84.500, 16.313
84.510, 11.313
84.520, 9.313
84.530, 14.314
84.540, 0.314
84.550, 14.315
84.560, 17.315
84.570, 9.316
84.580, 1.264
84.590, 10.264
84.600, 5.265
84.610, 3.735
84.620, 2.264
84.630, 20.263
84.640, 3.263
84.650, 10.262
84.660, 2.262
84.670, 10.261
84.680, 2.261
84.690, 7.260
84.700, 6.260
84.710, 9.260
84.720, 1.259
84.730, 11.259
84.740, 10.258
84.750, 3.258
84.760, 11.258
84.770, 9.258
84.780, 11.315
84.790, 22.623
84.800, 7.624
84.810, 10.624
84.820, 10.624
84.830, 3.625
84.840, 14.682
84.850, 8.683
84.860, 6.684
84.870, 15.685
84.880, 1.686
84.890, 11.686
84.900, 6.687
84.910, 3.311
84.920, 9.689
84.930, 11.690
84.940, 11.691
84.950, 13.692
84.960, 9.638
84.970, 14.640
84.980, 9.641
84.990, 7.642
85.000, 10.643
85.010, 17.644
85.020, 6.645
85.030, 1.354
85.040, 10.646
85.050, 10.533
85.060, 10.533
85.070, 0.517
85.080, 10.482
85.090, 9.601
85.100, 6.601
85.110, 9.600
85.120, 7.600
85.130, 5.362
85.140, 6.362
85.150, 1.361
85.160, 6.361
85.170, 12.360
85.180, 12.360
85.190, 6.359
85.200, 4.641
85.210, 18.356
85.220, 14.353
85.230, 6.349
85.240, 12.346
85.250, 3.343
85.260, 13.340
85.270, 8.338
85.280, 2.336
85.290, 3.334
85.300, 0.332
85.310, 6.330
85.320, 18.327
85.330, 12.325
85.340, 15.324
85.350, 9.322
85.360, 7.321
85.370, 1.319
85.380, 5.318
85.390, 12.316
85.400, 5.315
85.410, 7.313
85.420, 7.312
85.430, 5.310
85.440, 3.309
85.450, 6.307
85.460, 12.306
85.470, 7.304
85.480, 9.303
85.490, 2.301
85.500, 16.300
85.510, 4.298
85.520, 7.297
85.530, 11.295
85.540, 2.294
85.550, 4.292
85.560, 9.291
85.570, 15.289
85.580, 14.288
85.590, 10.286
85.600, 8.285
85.610, 5.283
85.620, 6.282
85.630, 5.289
85.640, 16.609
85.650, 2.507
85.660, 11.490
85.670, 9.487
85.680, 11.484
85.690, 10.482
85.700, 9.479
85.710, 7.477
85.720, 9.474
85.730, 2.472
85.740, 8.469
85.750, 3.467
85.760, 14.464
85.770, 10.461
85.780, 8.459
85.790, 18.457
85.800, 21.455
85.810, 13.212
85.820, 6.210
85.830, 21.207
85.840, 3.206
85.850, 13.204
85.860, 18.203
85.870, 10.202
85.880, 18.200
85.890, 18.199
85.900, 15.197
85.910, 3.196
85.920, 9.195
85.930, 12.193
85.940, 13.263
85.950, 10.262
85.960, 6.260
85.970, 0.741
85.980, 4.743
85.990, 17.336
86.000, 8.331
86.010, 15.327
86.020, 10.322
86.030, 0.682
86.040, 12.313
86.050, 14.308
86.060, 11.303
86.070, 10.298
86.080, 5.294
86.090, 18.290
86.100, 9.427
86.110, 10.338
86.120, 7.538
86.130, 2.534
86.140, 7.530
86.150, 0.525
86.160, 19.522
86.170, 15.518
86.180, 14.514
86.190, 11.510
86.200, 7.506
86.210, 12.502
86.220, 8.498
86.230, 15.391
86.240, 11.387
86.250, 8.384
86.260, 18.380
86.270, 11.331
86.280, 1.671
86.290, 15.325
86.300, 3.321
86.310, 5.318
86.320, 9.314
86.330, 13.311
86.340, 0.309
86.350, 5.306
86.360, 6.304
86.370, 10.301
86.380, 17.299
86.390, 14.296
86.400, 18.992
86.410, 18.989
86.420, 18.987
86.430, 9.984
86.440, 19.982
86.450, 19.980
86.460, 13.977
86.470, 10.975
86.480, 4.973
86.490, 15.971
86.500, 9.983
86.510, 20.981
86.520, 17.979
86.530, 4.977
86.540, 6.975
86.550, 1.973
86.560, 8.971
86.570, 7.969
86.580, 18.967
86.590, 19.966
86.600, 2.964
86.610, 12.962
86.620, 11.960
86.630, 16.959
86.640, 14.957
86.650, 11.956
86.660, 12.954
86.670, 24.953
86.680, 16.952
86.690, 6.951
86.700, 19.949
86.710, 10.948
86.720, 5.947
86.730, 14.946
86.740, 7.945
86.750, 11.944
86.760, 11.943
86.770, 7.942
86.780, 16.941
86.790, 13.940
86.800, 20.940
86.810, 12.939
86.820, 0.061
86.830, 5.062
86.840, 11.935
86.850, 6.758
86.860, 17.756
86.870, 3.753
86.880, 15.750
86.890, 15.748
86.900, 7.745
86.910, 15.743
86.920, 0.741
86.930, 12.738
86.940, 0.736
86.950, 1.734
86.960, 0.732
86.970, 2.730
86.980, 3.728
86.990, 4.726
87.000, 25.724
87.010, 5.724
87.020, 5.723
87.030, 12.916
87.040, 5.915
87.050, 6.915
87.060, 7.915
87.070, 10.915
87.080, 5.915
87.090, 3.916
87.100, 1.916
87.110, 8.917
87.120, 11.917
87.130, 1.082
87.140, 20.918
87.150, 8.918
87.160, 4.918
87.170, 13.861
87.180, 1.447
87.190, 11.552
87.200, 5.552
87.210, 10.552
87.220, 14.552
87.230, 12.496
87.240, 11.496
87.250, 4.496
87.260, 20.616
87.270, 18.672
87.280, 3.672
87.290, 2.327
87.300, 2.328
87.310, 3.328
87.320, 0.669
87.330, 4.667
87.340, 2.665
87.350, 5.663
87.360, 13.661
87.370, 6.659
87.380, 16.657
87.390, 9.655
87.400, 5.654
87.410, 6.653
87.420, 10.652
87.430, 1.651
87.440, 11.651
87.450, 8.651
87.460, 6.768
87.470, 1.768
87.480, 20.649
87.490, 15.649
87.500, 10.650
87.510, 18.650
87.520, 14.651
87.530, 8.652
87.540, 5.653
87.550, 8.654
87.560, 1.655
87.570, 9.656
87.580, 3.657
87.590, 3.658
87.600, 12.661
87.610, 7.664
87.620, 1.667
87.630, 3.669
87.640, 4.673
87.650, 2.676
87.660, 3.679
87.670, 0.682
87.680, 3.685
87.690, 0.311
87.700, 9.693
87.710, 5.696
87.720, 14.700
87.730, 6.704
87.740, 15.708
87.750, 3.712
87.760, 5.716
87.770, 22.720
87.780, 6.725
87.790, 20.729
87.800, 3.734
87.810, 10.739
87.820, 10.774
87.830, 5.779
87.840, 3.785
87.850, 9.790
87.860, 11.796
87.870, 4.801
87.880, 3.807
87.890, 9.813
87.900, 7.819
87.910, 11.825
87.920, 9.831
87.930, 1.836
87.940, 10.842
87.950, 9.847
87.960, 11.853
87.970, 12.859
87.980, 5.887
87.990, 12.893
88.000, 7.899
88.010, 11.906
88.020, 3.903
88.030, 10.589
88.040, 8.595
88.050, 15.601
88.060, 3.608
88.070, 10.636
88.080, 9.643
88.090, 5.650
88.100, 10.657
88.110, 9.665
88.120, 5.672
88.130, 13.680
88.140, 5.687
88.150, 1.695
88.160, 8.702
88.170, 6.710
88.180, 9.718
88.190, 4.726
88.200, 5.734
88.210, 5.742
88.220, 3.250
88.230, 4.829
88.240, 3.837
88.250, 19.845
88.260, 4.920
88.270, 11.928
88.280, 10.937
88.290, 13.946
88.300, 7.955
88.310, 18.964
88.320, 8.973
88.330, 15.912
88.340, 9.921
88.350, 5.931
88.360, 6.941
88.370, 2.951
88.380, 7.880
88.390, 7.898
88.400, 9.910
88.410, 9.922
88.420, 2.934
88.430, 1.947
88.440, 3.960
88.450, 2.027
88.460, 1.014
88.470, 3.999
88.480, 3.012
88.490, 13.919
88.500, 5.791
88.510, 7.601
88.520, 7.615
88.530, 8.629
88.540, 14.641
88.550, 4.654
88.560, 8.667
88.570, 2.680
88.580, 1.694
88.590, 0.805
88.600, 14.819
88.610, 5.833
88.620, 6.848
88.630, 3.863
88.640, 15.878
88.650, 2.106
88.660, 12.908
88.670, 12.922
88.680, 14.938
88.690, 9.953
88.700, 3.970
88.710, 9.981
88.720, 18.993
88.730, 5.005
88.740, 7.017
88.750, 4.029
88.760, 7.040
88.770, 11.074
88.780, 10.086
88.790, 3.098
88.800, 10.104
88.810, 7.104
88.820, 11.122
88.830, 10.140
88.840, 9.158
88.850, 15.161
88.860, 18.180
88.870, 6.199
88.880, 14.218
88.890, 0.237
88.900, 18.256
88.910, 6.276
88.920, 2.295
88.930, 12.315
88.940, 16.335
88.950, 13.355
88.960, 2.375
88.970, 6.396
88.980, 8.417
88.990, 8.438
89.000, 2.459
89.010, 0.520
89.020, 0.503
89.030, 13.529
89.040, 19.554
89.050, 0.580
89.060, 14.606
89.070, 22.632
89.080, 16.659
89.090, 22.686
89.100, 7.713
89.110, 8.741
89.120, 9.507
89.130, 21.532
89.140, 12.556
89.150, 5.580
89.160, 9.605
89.170, 0.370
89.180, 4.656
89.190, 10.683
89.200, 7.710
89.210, 2.738
89.220, 10.767
89.230, 9.611
89.240, 6.550
89.250, 15.576
89.260, 0.393
89.270, 11.640
89.280, 14.672
89.290, 16.706
89.300, 2.739
89.310, 9.771
89.320, 12.804
89.330, 14.630
89.340, 6.660
89.350, 3.691
89.360, 16.723
89.370, 5.754
89.380, 11.786
89.390, 21.819
89.400, 1.852
89.410, 4.885
89.420, 1.081
89.430, 0.953
89.440, 13.988
89.450, 0.977
89.460, 3.059
89.470, 17.095
89.480, 12.132
89.490, 20.169
89.500, 9.206
89.510, 16.170
89.520, 4.206
89.530, 8.242
89.540, 15.279
89.550, 27.317
89.560, 11.354
89.570, 4.398
89.580, 0.442
89.590, 15.422
89.600, 19.467
89.610, 13.511
89.620, 15.559
89.630, 16.612
89.640, 19.597
89.650, 20.650
89.660, 6.704
89.670, 12.762
89.680, 0.176
89.690, 6.888
89.700, 6.954
89.710, 15.021
89.720, 8.793
89.730, 9.565
89.740, 5.615
89.750, 7.666
89.760, 5.719
89.770, 9.774
89.780, 1.170
89.790, 10.887
89.800, 11.913
89.810, 8.973
89.820, 18.033
89.830, 10.097
89.840, 16.161
89.850, 13.953
89.860, 14.995
89.870, 10.066
89.880, 9.151
89.890, 11.238
89.900, 11.222
89.910, 8.203
89.920, 8.162
89.930, 4.107
89.940, 5.036
89.950, 18.900
89.960, 0.082
89.970, 13.954
89.980, 15.056
89.990, 3.479
90.000, 0.000
##END=



