##NAMES=Actinolite
##RRUFFID=R040063
##IDEAL CHEMISTRY=Ca_2_(Mg_4.5-2.5_Fe^2+^_0.5-2.5_)_&#931;=5_Si_8_O_22_(OH)_2_
##LOCALITY=Harford County, Maryland, USA
##OWNER=RRUFF
##SOURCE=University of Arizona Mineral Museum
##DESCRIPTION=Mass of green acicular to bladed crystals associated with chlorite
##STATUS=The identification of this mineral has been confirmed by X-ray diffraction and chemical analysis
##URL=rruff.info/R040063
104.0820, 0.0000000E+00
105.3260, 106.5088
106.5700, 629.3232
107.8140, 1129.276
109.0580, 1683.534
110.3020, 2671.781
111.5450, 4070.186
112.7890, 5164.701
114.0320, 6887.702
115.2740, 8657.255
116.5170, 10206.09
117.7590, 11303.29
119.0020, 12379.24
120.2440, 12801.38
121.4850, 12601.23
122.7270, 11703.33
123.9690, 10462.43
125.2100, 8939.145
126.4510, 7366.179
127.6920, 5654.723
128.9320, 4073.147
130.1730, 2825.051
131.4130, 1799.117
132.6530, 1067.090
133.8930, 581.7622
135.1320, 278.9585
136.3720, 46.46875
137.6110, 2.645508
138.8500, 3.681641
140.0890, 51.32910
141.3270, 16.69873
142.5660, 161.8545
143.8040, 173.2114
145.0420, 236.5376
146.2800, 232.5024
147.5180, 190.5171
148.7550, 31.65820
149.9920, 228.4941
151.2290, 625.6006
152.4660, 1237.666
153.7030, 2103.702
154.9390, 2755.731
156.1760, 3421.777
157.4120, 3966.876
158.6470, 4052.813
159.8830, 4049.415
161.1190, 3853.765
162.3540, 3406.299
163.5890, 2962.961
164.8240, 2462.752
166.0580, 2130.674
167.2930, 2259.728
168.5270, 2844.911
169.7610, 3724.228
170.9950, 4599.677
172.2290, 6157.257
173.4620, 7610.968
174.6960, 9876.811
175.9290, 10231.78
177.1620, 11047.88
178.3940, 11188.03
179.6270, 10594.09
180.8590, 9677.188
182.0910, 8208.370
183.3230, 6346.658
184.5550, 4759.059
185.7860, 3530.576
187.0180, 2516.209
188.2490, 1856.899
189.4800, 1387.562
190.7110, 1260.545
191.9410, 903.2930
193.1710, 890.0425
194.4020, 713.3364
195.6310, 558.9478
196.8610, 519.7246
198.0910, 506.5220
199.3200, 559.6240
200.5490, 701.9663
201.7780, 841.8672
203.0070, 1115.956
204.2360, 1392.228
205.4640, 1631.679
206.6920, 2264.342
207.9200, 2816.390
209.1480, 3619.853
210.3760, 4478.732
211.6030, 5500.915
212.8300, 6944.379
214.0570, 8396.074
215.2840, 10091.66
216.5110, 12355.99
217.7370, 13861.18
218.9630, 15701.50
220.1890, 17642.96
221.4150, 19239.54
222.6410, 20458.23
223.8660, 21260.03
225.0920, 22071.91
226.3170, 22525.90
227.5420, 22487.98
228.7660, 22585.16
229.9910, 22282.44
231.2150, 21878.80
232.4390, 20618.26
233.6630, 19248.80
234.8870, 17260.44
236.1100, 14955.17
237.3340, 12780.97
238.5570, 10768.87
239.7800, 8875.846
241.0020, 7733.899
242.2250, 7158.036
243.4470, 6879.249
244.6690, 6473.538
245.8910, 6515.904
247.1130, 6636.342
248.3350, 6776.851
249.5560, 6620.432
250.7770, 6315.083
251.9980, 6081.649
253.2190, 5690.269
254.4400, 5035.579
255.6600, 4272.990
256.8800, 3731.171
258.1010, 3189.900
259.3200, 2622.052
260.5400, 2296.525
261.7590, 1800.236
262.9790, 1398.058
264.1980, 1105.993
265.4170, 884.0542
266.6350, 614.2476
267.8540, 476.4590
269.0720, 259.7231
270.2900, 66.08008
271.5080, 76.90234
272.7260, 239.3691
273.9440, 330.0039
275.1610, 295.5396
276.3780, 358.9814
277.5950, 259.3564
278.8120, 313.4116
280.0280, 218.8882
281.2450, 281.0522
282.4610, 132.1660
283.6770, 73.24121
284.8930, 146.5254
286.1080, 391.9541
287.3240, 482.2524
288.5390, 623.5742
289.7540, 800.1055
290.9690, 825.3086
292.1840, 844.7837
293.3980, 940.6187
294.6120, 1078.486
295.8260, 1120.016
297.0400, 1261.963
298.2540, 1535.958
299.4680, 1461.000
300.6810, 1756.090
301.8940, 1981.227
303.1070, 1850.412
304.3200, 1768.645
305.5320, 1700.924
306.7450, 1624.250
307.9570, 1493.864
309.1690, 1346.696
310.3810, 1104.432
311.5920, 959.3389
312.8040, 836.8657
314.0150, 818.2549
315.2260, 697.8794
316.4370, 583.4385
317.6480, 575.2993
318.8580, 497.8296
320.0680, 508.6641
321.2780, 554.9351
322.4880, 554.7002
323.6980, 727.0371
324.9080, 784.6675
326.1170, 816.6226
327.3260, 1045.766
328.5350, 1128.623
329.7440, 1331.595
330.9520, 1515.583
332.1610, 1648.251
333.3690, 1754.211
334.5770, 1846.647
335.7850, 1863.286
336.9930, 1971.768
338.2000, 1960.018
339.4070, 2027.072
340.6140, 2009.089
341.8210, 2169.147
343.0280, 2330.247
344.2340, 2467.386
345.4410, 2629.052
346.6470, 2737.787
347.8530, 2937.047
349.0590, 3114.347
350.2640, 3273.684
351.4700, 3238.058
352.6750, 3284.468
353.8800, 3249.911
355.0850, 3478.388
356.2890, 3380.894
357.4940, 3502.428
358.6980, 3779.988
359.9020, 4173.575
361.1060, 4854.187
362.3100, 5652.821
363.5130, 6865.479
364.7160, 8139.161
365.9200, 10315.86
367.1220, 10685.59
368.3250, 11467.33
369.5280, 12031.09
370.7300, 12128.87
371.9320, 11829.67
373.1340, 10987.49
374.3360, 10088.32
375.5380, 8959.172
376.7390, 7841.040
377.9410, 7301.922
379.1420, 7084.821
380.3430, 6844.733
381.5430, 7090.661
382.7440, 7568.603
383.9440, 8677.556
385.1440, 9822.523
386.3440, 11661.50
387.5440, 13123.50
388.7440, 15273.50
389.9430, 17227.51
391.1420, 18659.54
392.3410, 19837.57
393.5400, 20197.62
394.7390, 19554.68
395.9370, 18457.74
397.1350, 16471.86
398.3340, 14725.01
399.5310, 12270.18
400.7290, 10524.38
401.9270, 8990.593
403.1240, 8090.822
404.3210, 7417.064
405.5180, 7204.316
406.7150, 7560.579
407.9120, 7792.851
409.1080, 8382.132
410.3040, 9177.420
411.5000, 9901.713
412.6960, 10762.01
413.8920, 11249.32
415.0870, 11565.09
416.2830, 11411.54
417.4780, 11108.30
418.6730, 10512.14
419.8680, 9380.845
421.0620, 8286.068
422.2570, 7098.740
423.4510, 6085.470
424.6450, 5076.341
425.8390, 4285.830
427.0320, 3633.417
428.2260, 3255.467
429.4190, 3030.914
430.6120, 2935.373
431.8050, 3058.839
432.9980, 3305.317
434.1900, 3268.834
435.3830, 3341.390
436.5750, 3398.994
437.7670, 3283.649
438.9590, 3001.342
440.1500, 2606.046
441.3420, 1920.752
442.5330, 1610.461
443.7240, 1144.171
444.9150, 785.8818
446.1060, 498.5938
447.2960, 290.3052
448.4870, 199.0166
449.6770, 76.72754
450.8670, 76.54492
452.0570, 112.8984
453.2460, 192.0464
454.4360, 127.9053
455.6250, 152.5688
456.8140, 178.2417
458.0030, 118.9644
459.1920, 73.14355
460.3800, 39.84766
461.5690, 74.60889
462.7570, 24.26904
463.9450, 6.886719
465.1330, 10.03857
466.3200, 71.32910
467.5080, 44.05322
468.6950, 103.1069
469.8820, 126.7578
471.0690, 164.8433
472.2560, 163.7715
473.4420, 171.6372
474.6280, 217.6968
475.8150, 320.2607
477.0010, 381.8096
478.1860, 422.9468
479.3720, 456.1943
480.5570, 544.0952
481.7430, 625.4302
482.9280, 785.9087
484.1130, 964.3691
485.2970, 903.8115
486.4820, 1100.235
487.6660, 996.6396
488.8500, 927.0249
490.0340, 834.3906
491.2180, 707.7354
492.4020, 721.0605
493.5850, 641.3643
494.7680, 515.6475
495.9520, 460.9082
497.1340, 477.1475
498.3170, 414.3643
499.5000, 521.5581
500.6820, 561.7290
501.8640, 622.8770
503.0460, 729.0015
504.2280, 865.1021
505.4100, 1027.123
506.5910, 1247.103
507.7720, 1444.258
508.9530, 1735.260
510.1340, 2009.237
511.3150, 2229.189
512.4960, 2617.116
513.6760, 2843.016
514.8560, 2931.899
516.0360, 3245.757
517.2160, 3270.588
518.3960, 3608.394
519.5750, 3668.171
520.7550, 3653.922
521.9340, 3876.679
523.1130, 3971.438
524.2910, 4094.170
525.4700, 4190.881
526.6480, 4225.572
527.8270, 4245.237
529.0050, 4227.895
530.1820, 4140.533
531.3600, 3974.149
532.5380, 3864.770
533.7150, 3523.408
534.8920, 3302.070
536.0690, 3030.752
537.2460, 2871.463
538.4220, 2542.182
539.5990, 2603.890
540.7750, 2310.596
541.9510, 2171.296
543.1270, 2137.982
544.3030, 1930.663
545.4780, 1949.315
546.6540, 1813.954
547.8290, 1846.559
549.0040, 1713.144
550.1790, 1643.709
551.3530, 1478.248
552.5280, 1511.766
553.7020, 1466.251
554.8760, 1361.701
556.0500, 1396.114
557.2240, 1200.499
558.3970, 1250.885
559.5710, 1206.307
560.7440, 1159.787
561.9170, 1099.312
563.0900, 1097.907
564.2630, 1048.542
565.4350, 1051.229
566.6080, 1122.943
567.7800, 1141.699
568.9520, 1139.460
570.1240, 1153.188
571.2950, 1181.875
572.4670, 1171.138
573.6380, 1147.038
574.8090, 1183.099
575.9800, 1087.226
577.1510, 1123.712
578.3210, 1145.157
579.4920, 947.9277
580.6620, 1119.923
581.8320, 958.2417
583.0020, 988.5176
584.1710, 913.7510
585.3410, 906.9414
586.5100, 884.0884
587.6790, 707.1924
588.8480, 489.2520
590.0170, 481.2676
591.1860, 425.2397
592.3540, 199.9233
593.5220, 178.3799
594.6910, 58.92285
595.8590, 80.27246
597.0260, 27.01660
598.1940, 27.79150
599.3610, 71.84717
600.5280, 164.1035
601.6950, 235.9224
602.8620, 104.5068
604.0290, 178.4570
605.1960, 196.9248
606.3620, 72.97363
607.5280, 194.6494
608.6940, 51.37109
609.8600, 94.13574
611.0260, 46.81689
612.1910, 24.25830
613.3560, 21.13965
614.5210, 47.48975
615.6860, 47.83691
616.8510, 90.10791
618.0160, 198.3115
619.1800, 142.4629
620.3440, 292.5557
621.5080, 238.6035
622.6720, 411.6035
623.8360, 463.5630
625.0000, 524.4814
626.1630, 550.3594
627.3260, 545.1968
628.4890, 737.9927
629.6520, 887.7490
630.8150, 891.4644
631.9770, 912.1387
633.1390, 989.7720
634.3020, 968.3647
635.4640, 1171.917
636.6250, 1307.428
637.7870, 1362.898
638.9480, 1601.328
640.1100, 1801.717
641.2710, 1926.065
642.4320, 2324.372
643.5930, 2616.639
644.7530, 2960.865
645.9140, 3318.049
647.0740, 3706.193
648.2340, 4169.217
649.3940, 4660.979
650.5530, 5195.001
651.7130, 5817.078
652.8720, 6429.509
654.0320, 7165.035
655.1910, 8034.153
656.3490, 8938.971
657.5080, 10271.99
658.6670, 11805.73
659.8250, 13791.58
660.9830, 16402.82
662.1410, 19810.83
663.2990, 24064.78
664.4570, 29742.43
665.6140, 36756.39
666.7710, 45261.11
667.9280, 54742.39
669.0850, 64686.87
670.2420, 74864.39
671.3990, 83292.18
672.5550, 89072.53
673.7110, 88947.84
674.8680, 87778.87
676.0230, 80556.46
677.1790, 70825.20
678.3350, 59943.75
679.4900, 48902.57
680.6450, 39500.83
681.8000, 31291.96
682.9550, 25260.61
684.1100, 20266.42
685.2650, 16630.15
686.4190, 13633.86
687.5730, 11572.49
688.7270, 9632.889
689.8810, 8353.749
691.0350, 7399.367
692.1880, 6515.968
693.3420, 5827.390
694.4950, 5173.500
695.6480, 4562.310
696.8010, 4195.579
697.9530, 3857.142
699.1060, 3548.914
700.2580, 3127.066
701.4100, 2957.116
702.5620, 2661.381
703.7140, 2452.054
704.8660, 2378.011
706.0170, 2257.920
707.1680, 2241.781
708.3200, 1911.595
709.4700, 1789.360
710.6210, 1694.077
711.7720, 1618.747
712.9220, 1577.370
714.0730, 1506.945
715.2230, 1467.474
716.3730, 1487.955
717.5220, 1448.391
718.6720, 1383.779
719.8210, 1341.121
720.9710, 1371.418
722.1200, 1337.059
723.2690, 1354.977
724.4170, 1346.036
725.5660, 1355.151
726.7140, 1375.222
727.8630, 1443.023
729.0110, 1441.298
730.1590, 1598.921
731.3060, 1733.064
732.4540, 1781.628
733.6010, 1937.971
734.7480, 2050.832
735.8950, 2347.298
737.0420, 2572.130
738.1890, 2923.166
739.3360, 3013.513
740.4820, 3382.395
741.6280, 3548.659
742.7740, 3829.318
743.9200, 4008.833
745.0660, 4336.117
746.2110, 4406.731
747.3570, 4748.318
748.5020, 5058.188
749.6470, 4954.996
750.7920, 4811.186
751.9360, 4524.036
753.0810, 4234.713
754.2250, 3544.371
755.3690, 3254.997
756.5130, 2728.301
757.6570, 2323.819
758.8010, 2025.955
759.9440, 1762.610
761.0880, 1592.080
762.2310, 1375.812
763.3740, 1200.944
764.5170, 1080.339
765.6590, 943.7100
766.8020, 871.0576
767.9440, 898.3818
769.0860, 672.6816
770.2280, 681.9595
771.3700, 672.2144
772.5120, 583.4468
773.6530, 555.6572
774.7950, 566.8457
775.9360, 542.0127
777.0770, 486.1592
778.2180, 401.2837
779.3580, 414.3887
780.4990, 331.4727
781.6390, 315.5381
782.7790, 359.5820
783.9190, 298.6079
785.0590, 257.6143
786.1990, 307.6021
787.3380, 247.5723
788.4780, 73.52490
789.6170, 216.4585
790.7560, 2.625488
791.8950, 52.25586
793.0330, 113.1182
794.1720, 49.96582
795.3100, 164.7949
796.4480, 64.60938
797.5860, 103.5928
798.7240, 85.87695
799.8620, 13.76660
800.9990, 3.609375
802.1360, 10.64746
803.2740, 17.32373
804.4110, 66.89404
805.5470, 24.40088
806.6840, 9.940918
807.8210, 112.5078
808.9570, 171.1533
810.0930, 187.7490
811.2290, 186.2544
812.3650, 212.7617
813.5010, 137.8735
814.6360, 73.07129
815.7710, 111.3213
816.9070, 88.64062
818.0420, 73.01807
819.1760, 99.44287
820.3110, 17.92871
821.4460, 73.43213
822.5800, 20.01904
823.7140, 60.53516
824.8480, 59.12451
825.9820, 29.74756
827.1160, 67.38965
828.2490, 6.6405997E-02
829.3820, 42.24902
830.5160, 21.56152
831.6490, 5.128906
832.7820, 28.82568
833.9140, 10.53711
835.0470, 19.94678
836.1790, 7.079102
837.3110, 55.70996
838.4430, 7.700684
839.5750, 25.21191
840.7070, 59.02637
841.8380, 108.2656
842.9700, 159.5059
844.1010, 190.7275
845.2320, 166.6147
846.3630, 224.7451
847.4940, 260.2905
848.6240, 274.4482
849.7550, 203.2246
850.8850, 242.2661
852.0150, 237.1177
853.1450, 230.1641
854.2750, 284.7378
855.4040, 225.9312
856.5340, 279.5420
857.6630, 288.2788
858.7920, 317.5557
859.9210, 302.3740
861.0500, 300.9326
862.1780, 343.9668
863.3070, 362.3916
864.4350, 342.1099
865.5630, 372.7246
866.6910, 312.4243
867.8190, 331.9292
868.9460, 385.8672
870.0740, 367.9058
871.2010, 399.4263
872.3280, 412.1548
873.4550, 339.2964
874.5820, 415.3975
875.7090, 427.1855
876.8350, 372.9448
877.9610, 444.1802
879.0880, 399.2183
880.2140, 395.8442
881.3390, 423.7559
882.4650, 419.2061
883.5910, 466.0527
884.7160, 463.4878
885.8410, 526.8906
886.9660, 465.2656
888.0910, 421.6753
889.2160, 470.1157
890.3400, 641.5879
891.4650, 685.0869
892.5890, 710.6055
893.7130, 659.1470
894.8370, 823.7051
895.9600, 715.2822
897.0840, 953.8740
898.2070, 957.4805
899.3310, 995.1196
900.4540, 861.7754
901.5770, 954.4502
902.6990, 1239.141
903.8220, 1144.859
904.9440, 1292.595
906.0670, 1324.349
907.1890, 1342.120
908.3110, 1405.193
909.4320, 1336.740
910.5540, 1454.590
911.6750, 1583.492
912.7970, 1623.412
913.9180, 1814.352
915.0390, 1907.335
916.1600, 2220.336
917.2800, 2417.067
918.4010, 2577.414
919.5210, 2989.521
920.6410, 3364.684
921.7610, 3778.893
922.8810, 4505.153
924.0010, 5174.246
925.1200, 6457.597
926.2400, 7433.355
927.3590, 8448.525
928.4780, 9326.007
929.5970, 9519.454
930.7160, 9639.861
931.8340, 9117.298
932.9530, 9258.401
934.0710, 7978.740
935.1890, 7162.171
936.3070, 5858.890
937.4250, 5069.286
938.5420, 4373.897
939.6600, 4084.957
940.7770, 3694.783
941.8940, 3417.577
943.0110, 3299.093
944.1280, 3189.069
945.2450, 3179.111
946.3610, 3167.371
947.4770, 3128.093
948.5940, 3037.672
949.7100, 2791.439
950.8250, 2517.935
951.9410, 2255.989
953.0570, 2272.161
954.1720, 1993.816
955.2870, 1947.297
956.4020, 1679.856
957.5170, 1564.420
958.6320, 1436.061
959.7470, 1373.907
960.8610, 1232.289
961.9750, 1220.897
963.0890, 1051.516
964.2030, 1138.305
965.3170, 1146.129
966.4310, 998.7764
967.5440, 1104.689
968.6570, 981.2959
969.7710, 1010.684
970.8840, 918.6816
971.9960, 925.7695
973.1090, 901.3311
974.2220, 891.8516
975.3340, 882.2109
976.4460, 898.3867
977.5580, 933.5996
978.6700, 908.8467
979.7820, 938.1270
980.8930, 874.4414
982.0050, 944.7910
983.1160, 923.6611
984.2270, 951.8291
985.3380, 969.0459
986.4490, 947.5312
987.5600, 1053.052
988.6700, 903.6055
989.7800, 978.1914
990.8900, 1052.812
992.0000, 1159.465
993.1100, 1055.151
994.2200, 1154.870
995.3300, 1153.622
996.4390, 1367.406
997.5480, 1425.225
998.6570, 1388.079
999.7660, 1599.966
1000.875, 1738.886
1001.983, 1925.838
1003.092, 2061.823
1004.200, 2172.841
1005.308, 2289.891
1006.416, 2391.973
1007.524, 2497.086
1008.632, 2583.231
1009.739, 2721.407
1010.846, 2840.613
1011.954, 3096.850
1013.061, 3407.116
1014.167, 3643.412
1015.274, 3838.738
1016.381, 4222.092
1017.487, 4678.474
1018.593, 5070.885
1019.699, 5875.324
1020.805, 6644.789
1021.911, 7683.281
1023.017, 8953.802
1024.122, 10362.35
1025.227, 11897.92
1026.333, 13434.53
1027.438, 14549.15
1028.542, 15214.97
1029.647, 15143.65
1030.752, 14247.36
1031.856, 13214.56
1032.960, 11590.60
1034.064, 10058.90
1035.168, 8356.708
1036.272, 7232.818
1037.375, 6083.878
1038.479, 5457.031
1039.582, 4905.172
1040.685, 4626.104
1041.788, 4273.729
1042.891, 4031.930
1043.994, 4078.432
1045.096, 4132.726
1046.198, 4374.089
1047.301, 4655.566
1048.403, 5096.117
1049.505, 5634.124
1050.606, 6281.451
1051.708, 7063.984
1052.809, 7896.303
1053.911, 8911.333
1055.012, 9828.774
1056.113, 10522.88
1057.213, 11295.48
1058.314, 11419.16
1059.414, 11516.36
1060.515, 11001.12
1061.615, 10429.35
1062.715, 10051.39
1063.815, 9737.267
1064.915, 9503.220
1066.014, 9365.562
1067.114, 9305.322
1068.213, 9099.431
1069.312, 8663.389
1070.411, 8126.989
1071.510, 7503.332
1072.608, 6671.449
1073.707, 5760.512
1074.805, 4976.570
1075.903, 4251.481
1077.001, 3862.085
1078.099, 3261.408
1079.197, 3228.999
1080.294, 2825.648
1081.392, 2611.711
1082.489, 2343.221
1083.586, 2218.787
1084.683, 2019.165
1085.780, 1773.330
1086.877, 1715.188
1087.973, 1587.146
1089.069, 1333.522
1090.166, 1293.116
1091.262, 1441.187
1092.358, 1222.761
1093.453, 1171.361
1094.549, 1169.549
1095.644, 988.4219
1096.739, 966.1729
1097.835, 1023.942
1098.930, 942.0869
1100.024, 1051.841
1101.119, 995.8662
1102.214, 1078.784
1103.308, 984.3633
1104.402, 964.9697
1105.496, 928.6191
1106.590, 893.1221
1107.684, 923.6855
1108.777, 932.4805
1109.871, 865.0244
1110.964, 820.4150
1112.057, 861.7402
1113.150, 872.3555
1114.243, 811.8008
1115.336, 776.2598
1116.428, 719.7412
1117.521, 642.9854
1118.613, 681.4688
1119.705, 641.7197
1120.797, 818.9463
1121.889, 775.1680
1122.980, 762.3828
1124.072, 519.5938
1125.163, 614.7998
1126.254, 598.9980
1127.345, 335.1904
1128.436, 524.3760
1129.527, 532.3154
1130.617, 476.4883
1131.708, 466.8164
1132.798, 464.9746
1133.888, 502.1250
1134.978, 652.2686
1136.068, 477.8574
1137.157, 501.5693
1138.247, 201.6846
1139.336, 313.7891
1140.425, 232.8867
1141.514, 342.9736
1142.603, 247.0498
1143.692, 352.1152
1144.781, 186.1963
1145.869, 273.2656
1146.957, 187.3271
1148.046, 132.3750
1149.134, 167.4111
1150.221, 183.4365
1151.309, 114.4482
1152.397, 223.4531
1153.484, 105.4434
1154.571, 131.4189
1155.658, 96.37891
1156.745, 145.3262
1157.832, 146.3291
1158.919, 17.20605
1160.005, 117.1064
1161.092, 82.99023
1162.178, 68.13574
1163.264, 5.688477
1164.350, 7.507813
1165.435, 105.2705
1166.521, 42.96680
1167.606, 36.75391
1168.692, 23.45410
1169.777, 36.13281
1170.862, 133.7910
1171.947, 89.57129
1173.031, 48.99805
1174.116, 119.4551
1175.200, 100.0029
1176.285, 36.44043
1177.369, 78.14648
1178.453, 146.1973
1179.536, 30.52344
1180.620, 38.17773
1181.704, 103.9297
1182.787, 114.7676
1183.870, 76.70020
1184.953, 97.52734
1186.036, 42.80078
1187.119, 96.95312
1188.201, 17.19336
1189.284, 71.48047
1190.366, 94.84473
1191.448, 53.29883
1192.530, 48.82129
1193.612, 39.58789
1194.694, 204.0312
1195.775, 112.8008
1196.857, 133.6748
1197.938, 5.337891
1199.019, 21.30664
1200.100, 43.23926
1201.181, 29.15430
1202.262, 53.03711
1203.342, 51.11133
1204.423, 77.66504
1205.503, 109.5781
1206.583, 34.27344
1207.663, 16.86133
1208.743, 3.307617
1209.822, 107.8096
1210.902, 99.58008
1211.981, 19.93652
1213.060, 3.247070
1214.139, 7.715820
1215.218, 3.806641
1216.297, 21.06250
1217.376, 52.16211
1218.454, 37.41211
1219.532, 106.0127
1220.611, 53.22363
1221.689, 123.1797
1222.766, 121.2480
1223.844, 54.14453
1224.922, 31.99902
1225.999, 96.80566
1227.076, 95.57520
1228.154, 62.47266
1229.231, 104.1934
1230.307, 73.89648
1231.384, 86.50879
1232.461, 153.0830
1233.537, 150.6211
1234.613, 142.1221
1235.689, 179.5889
1236.765, 166.2793
1237.841, 112.5859
1238.917, 173.7090
1239.992, 211.7900
1241.068, 228.7402
1242.143, 160.0566
1243.218, 201.5322
1244.293, 198.7822
1245.368, 194.1787
1246.442, 251.0488
1247.517, 194.6104
1248.591, 250.7393
1249.666, 261.7354
1250.740, 293.1572
1251.813, 280.1289
1252.887, 280.7559
1253.961, 326.0645
1255.034, 346.4600
1256.108, 328.1338
1257.181, 360.6504
1258.254, 110.4590
1259.327, 285.5596
1260.400, 230.6025
1261.472, 401.3350
1262.545, 373.2891
1263.617, 308.8467
1264.689, 425.3682
1265.761, 264.2520
1266.833, 442.7002
1267.905, 305.1279
1268.976, 487.3184
1270.048, 362.7617
1271.119, 428.4961
1272.190, 411.5996
1273.261, 535.1318
1274.332, 363.7031
1275.403, 421.5859
1276.473, 433.8203
1277.544, 457.0576
1278.614, 431.4531
1279.684, 390.7119
1280.754, 461.1152
1281.824, 405.0479
1282.894, 457.9434
1283.963, 460.8008
1285.033, 335.1230
1286.102, 290.9033
1287.171, 417.7490
1288.240, 355.6143
1289.309, 310.2803
1290.377, 464.3154
1291.446, 363.4297
1292.514, 418.7041
1293.583, 401.6973
1294.651, 429.1729
1295.719, 437.3320
1296.787, 529.5293
1297.854, 469.6172
1298.922, 510.7070
1299.989, 503.9902
1301.056, 426.8223
1302.123, 508.8486
1303.190, 526.2881
1304.257, 404.3838
1305.324, 302.1611
1306.390, 432.8125
1307.457, 375.4707
1308.523, 434.5908
1309.589, 444.8125
1310.655, 464.6045
1311.721, 466.3369
1312.787, 317.3945
1313.852, 377.2070
1314.917, 377.1055
1315.983, 255.5820
1317.048, 390.8633
1318.113, 337.6279
1319.178, 490.8291
1320.242, 367.5332
1321.307, 501.4150
1322.371, 388.4502
1323.435, 404.4170
1324.499, 512.9824
1325.563, 371.1406
1326.627, 444.9336
1327.691, 434.3564
1328.754, 258.2773
1329.818, 422.3633
1330.881, 378.5566
1331.944, 334.3555
1333.007, 272.0918
1334.070, 145.6904
1335.132, 132.9912
1336.195, 262.6074
1337.257, 299.9951
1338.320, 188.9688
1339.382, 281.6641
1340.444, 215.1787
1341.505, 125.6768
1342.567, 234.3691
1343.629, 268.2773
1344.690, 259.3896
1345.751, 284.7324
1346.812, 214.3789
1347.873, 242.8398
1348.934, 178.9287
1349.995, 140.2070
1351.055, 275.3320
1352.116, 238.1406
1353.176, 223.3848
1354.236, 316.6240
1355.296, 131.8262
1356.356, 163.6338
1357.416, 158.8184
1358.475, 190.7100
1359.535, 271.6904
1360.594, 263.0273
1361.653, 247.9219
1362.712, 279.1543
1363.771, 159.7012
1364.829, 117.9375
1365.888, 69.87988
1366.946, 192.0654
1368.005, 106.3604
1369.063, 149.6953
1370.121, 169.7061
1371.179, 166.8652
1372.236, 240.9824
1373.294, 174.3096
1374.351, 146.7637
1375.409, 93.77344
1376.466, 150.9922
1377.523, 177.1064
1378.580, 149.8096
1379.636, 236.5645
1380.693, 109.1211
1381.749, 261.3750
1382.806, 220.4121
1383.862, 170.8066
1384.918, 99.09082
1385.974, 67.63867
1387.029, 71.79980
1388.085, 136.7197
1389.140, 74.74707
1390.196, 184.7422
1391.251, 175.7861
1392.306, 63.73730
1393.361, 191.5996
1394.416, 153.4805
1395.470, 17.32031
1396.525, 131.1338
1397.579, 146.9287
1398.633, 170.7061
1399.687, 83.28711
1400.741, 62.42773
1401.795, 20.11523
1402.849, 123.9775
1403.902, 113.8545
1404.955, 66.42676
1406.009, 88.97949
1407.062, 3.665039
1408.115, 202.7715
1409.168, 318.4150
1410.220, 348.5225
1411.273, 37.00684
1412.325, 166.5234
1413.377, 119.2246
1414.429, 64.68848
1415.481, 256.2334
1416.533, 5.733398
1417.585, 181.8652
1418.636, 189.9531
1419.688, 280.1699
1420.739, 192.4805
1421.790, 159.7041
1422.841, 304.8271
1423.892, 351.4219
1424.943, 243.1738
1425.993, 338.4668
1427.044, 70.04102
1428.094, 120.7705
1429.144, 309.1650
1430.194, 209.8115
1431.244, 308.3018
1432.294, 331.4053
1433.344, 12.03223
1434.393, 288.2275
1435.442, 306.8379
1436.492, 60.96582
1437.541, 316.7559
1438.590, 107.3770
1439.638, 64.03809
1440.687, 145.7461
1441.735, 97.12988
1442.784, 253.9238
1443.832, 212.8486
1444.880, 156.6875
1445.928, 175.1279
1446.976, 122.4355
1448.024, 180.4043
1449.071, 108.7930
1450.119, 174.9619
1451.166, 272.1475
1452.213, 130.3408
1453.260, 241.5176
1454.307, 39.74414
1455.353, 7.253906
1456.400, 18.95117
1457.447, 241.5654
1458.493, 36.91797
1459.539, 1.861328
1460.585, 176.0586
1461.631, 161.2578
1462.677, 225.2861
1463.722, 55.58594
1464.768, 105.6963
1465.813, 95.18945
1466.858, 293.8486
1467.903, 327.3770
1468.948, 161.4141
1469.993, 3.616211
1471.038, 210.2490
1472.082, 65.06055
1473.127, 113.5166
1474.171, 38.78027
1475.215, 17.98535
1476.259, 0.2832030
1477.303, 107.1865
1478.346, 89.13574
1479.390, 131.7012
1480.433, 116.9824
1481.477, 161.3193
1482.520, 199.3213
1483.563, 222.9014
1484.606, 181.3193
1485.649, 260.6670
1486.691, 83.56738
1487.734, 3.461914
1488.776, 7.915039
1489.818, 308.8252
1490.860, 312.5879
1491.902, 39.80078
1492.944, 262.1924
1493.986, 161.8105
1495.027, 179.6357
1496.069, 155.9414
1497.110, 144.3838
1498.151, 159.9053
1499.192, 8.064453
1500.233, 225.1777
1501.273, 142.5820
1502.314, 263.6562
1503.354, 13.58203
1504.395, 16.57422
1505.435, 12.09863
1506.475, 62.18359
1507.515, 5.333008
1508.555, 24.43359
1509.594, 40.21973
1510.634, 30.14453
1511.673, 59.96387
1512.712, 74.53125
1513.751, 83.33691
1514.790, 86.16016
1515.829, 70.94531
1516.868, 112.8047
1517.906, 152.4990
1518.945, 143.2773
1519.983, 155.0381
1521.021, 289.3711
1522.059, 179.9863
1523.097, 150.0654
1524.135, 23.49512
1525.172, 116.0234
1526.210, 183.5068
1527.247, 30.52832
1528.284, 11.30566
1529.321, 178.7783
1530.358, 107.6836
1531.395, 232.7246
1532.432, 0.2724610
1533.468, 174.7148
1534.505, 186.7471
1535.541, 238.2656
1536.577, 279.7754
1537.613, 399.2764
1538.649, 278.7832
1539.685, 272.2822
1540.720, 124.5801
1541.756, 118.2842
1542.791, 222.4521
1543.826, 211.1299
1544.861, 264.2119
1545.896, 88.67773
1546.931, 90.94043
1547.966, 201.5869
1549.000, 172.9238
1550.034, 250.6416
1551.069, 256.4863
1552.103, 158.2236
1553.137, 140.7158
1554.171, 149.9727
1555.204, 427.7812
1556.238, 226.4893
1557.271, 187.8555
1558.305, 303.3701
1559.338, 161.8320
1560.371, 102.0254
1561.404, 111.7520
1562.437, 110.8027
1563.469, 170.1904
1564.502, 23.72363
1565.534, 312.3838
1566.566, 37.15723
1567.599, 90.22461
1568.631, 31.33887
1569.662, 106.6533
1570.694, 123.0771
1571.726, 248.0664
1572.757, 240.0781
1573.789, 277.5967
1574.820, 154.2002
1575.851, 213.3232
1576.882, 167.1260
1577.912, 91.50586
1578.943, 309.7510
1579.974, 0.0000000E+00
##END=



