##NAMES=Actinolite
##RRUFFID=R040063
##IDEAL CHEMISTRY=Ca_2_(Mg_4.5-2.5_Fe^2+^_0.5-2.5_)_&#931;=5_Si_8_O_22_(OH)_2_
##LOCALITY=Harford County, Maryland, USA
##OWNER=RRUFF
##SOURCE=University of Arizona Mineral Museum
##DESCRIPTION=Mass of green acicular to bladed crystals associated with chlorite
##STATUS=The identification of this mineral has been confirmed by X-ray diffraction and chemical analysis
##URL=rruff.info/R040063
102.8370, 0.0000000E+00
104.0820, 91.01953
105.3260, 554.6284
106.5700, 1459.675
107.8140, 2225.627
109.0580, 3416.986
110.3020, 5337.992
111.5450, 7126.088
112.7890, 9390.835
114.0320, 12253.79
115.2740, 15578.71
116.5170, 18564.67
117.7590, 20162.13
119.0020, 19885.92
120.2440, 19977.10
121.4850, 18919.70
122.7270, 17120.78
123.9690, 15165.06
125.2100, 12679.51
126.4510, 10095.61
127.6920, 7602.447
128.9320, 5537.706
130.1730, 3692.900
131.4130, 2322.639
132.6530, 1268.606
133.8930, 1244.542
135.1320, 751.2222
136.3720, 151.4619
137.6110, 54.89893
138.8500, 78.00342
140.0890, 79.95361
141.3270, 114.8916
142.5660, 135.2671
143.8040, 33.06152
145.0420, 219.2847
146.2800, 321.6733
147.5180, 306.0771
148.7550, 135.5952
149.9920, 82.52734
151.2290, 176.1660
152.4660, 612.5127
153.7030, 1340.558
154.9390, 1753.355
156.1760, 2276.966
157.4120, 2646.444
158.6470, 3059.827
159.8830, 2988.143
161.1190, 2945.408
162.3540, 2572.639
163.5890, 2358.441
164.8240, 2235.385
166.0580, 2033.195
167.2930, 2376.359
168.5270, 3067.520
169.7610, 4121.684
170.9950, 5305.854
172.2290, 6919.033
173.4620, 8622.225
174.6960, 10395.43
175.9290, 11259.26
177.1620, 12145.81
178.3940, 12201.76
179.6270, 11543.69
180.8590, 10425.66
182.0910, 8581.718
183.3230, 6656.873
184.5550, 5108.132
185.7860, 3834.829
187.0180, 2793.120
188.2490, 2104.772
189.4800, 1627.305
190.7110, 1455.428
191.9410, 1299.455
193.1710, 987.2041
194.4020, 794.6357
195.6310, 598.2412
196.8610, 485.9282
198.0910, 426.7041
199.3200, 353.3652
200.5490, 430.0503
201.7780, 447.9248
203.0070, 693.0078
204.2360, 886.3223
205.4640, 1298.996
206.6920, 1781.154
207.9200, 2178.747
209.1480, 2870.770
210.3760, 3524.132
211.6030, 4303.888
212.8300, 5161.892
214.0570, 6047.112
215.2840, 7099.491
216.5110, 8155.046
217.7370, 9470.755
218.9630, 10607.58
220.1890, 11334.51
221.4150, 12241.52
222.6410, 12870.59
223.8660, 13267.71
225.0920, 13432.90
226.3170, 12798.15
227.5420, 12398.46
228.7660, 12174.82
229.9910, 11551.24
231.2150, 10947.71
232.4390, 10455.24
233.6630, 9640.812
234.8870, 8913.439
236.1100, 7524.113
237.3340, 6269.833
238.5570, 5206.600
239.7800, 4462.411
241.0020, 3683.264
242.2250, 3370.156
243.4470, 3191.089
244.6690, 3149.059
245.8910, 3218.066
247.1130, 3331.108
248.3350, 3340.184
249.5560, 3448.292
250.7770, 3417.111
251.9980, 3393.241
253.2190, 2842.773
254.4400, 2669.875
255.6600, 2445.085
256.8800, 1962.089
258.1010, 1712.690
259.3200, 1457.764
260.5400, 1172.183
261.7590, 1025.805
262.9790, 744.5591
264.1980, 525.4551
265.4170, 502.4946
266.6350, 332.6763
267.8540, 122.8813
269.0720, 158.9194
270.2900, 183.0098
271.5080, 220.3667
272.7260, 378.4165
273.9440, 413.6865
275.1610, 474.9175
276.3780, 397.1436
277.5950, 412.3579
278.8120, 314.5762
280.0280, 238.7861
281.2450, 182.7505
282.4610, 125.8784
283.6770, 410.0454
284.8930, 670.0781
286.1080, 844.6362
287.3240, 875.5518
288.5390, 1036.902
289.7540, 1145.802
290.9690, 1051.785
292.1840, 1217.660
293.3980, 1271.873
294.6120, 1322.305
295.8260, 1529.653
297.0400, 1489.645
298.2540, 1691.140
299.4680, 1716.636
300.6810, 1887.136
301.8940, 1852.641
303.1070, 1783.317
304.3200, 1717.311
305.5320, 1674.484
306.7450, 1623.030
307.9570, 1494.251
309.1690, 1275.770
310.3810, 1065.628
311.5920, 963.4126
312.8040, 1034.000
314.0150, 742.8018
315.2260, 984.6489
316.4370, 797.5967
317.6480, 787.3369
318.8580, 848.0439
320.0680, 867.2656
321.2780, 1148.732
322.4880, 1245.587
323.6980, 1489.433
324.9080, 1654.709
326.1170, 1825.127
327.3260, 2076.681
328.5350, 2164.038
329.7440, 2555.217
330.9520, 2690.334
332.1610, 2925.552
333.3690, 2862.501
334.5770, 2868.068
335.7850, 2735.139
336.9930, 2769.756
338.2000, 2689.200
339.4070, 2645.491
340.6140, 2560.325
341.8210, 2562.498
343.0280, 2474.688
344.2340, 2422.896
345.4410, 2632.119
346.6470, 2606.361
347.8530, 2640.619
349.0590, 2617.890
350.2640, 2689.176
351.4700, 2599.473
352.6750, 2729.779
353.8800, 2732.092
355.0850, 2695.410
356.2890, 2668.731
357.4940, 2974.053
358.6980, 3214.376
359.9020, 3683.696
361.1060, 4327.135
362.3100, 5107.328
363.5130, 5969.640
364.7160, 7072.945
365.9200, 8196.245
367.1220, 9345.540
368.3250, 10044.82
369.5280, 10727.10
370.7300, 10575.38
371.9320, 10388.64
373.1340, 9813.895
374.3360, 9027.142
375.5380, 8144.377
376.7390, 7152.603
377.9410, 6853.819
379.1420, 6676.025
380.3430, 6757.220
381.5430, 7024.402
382.7440, 7633.574
383.9440, 8383.732
385.1440, 9838.879
386.3440, 11391.01
387.5440, 13120.14
388.7440, 14999.24
389.9430, 16610.34
391.1420, 17972.42
392.3410, 18767.49
393.5400, 18785.54
394.7390, 18293.58
395.9370, 16980.65
397.1350, 15250.74
398.3340, 13042.82
399.5310, 11147.90
400.7290, 9451.958
401.9270, 8057.001
403.1240, 7202.025
404.3210, 6861.026
405.5180, 6518.001
406.7150, 6303.952
407.9120, 6757.875
409.1080, 6958.772
410.3040, 7525.641
411.5000, 8062.481
412.6960, 8385.343
413.8920, 8702.685
415.0870, 8847.914
416.2830, 8814.999
417.4780, 8325.719
418.6730, 7692.284
419.8680, 6809.173
421.0620, 6101.528
422.2570, 5027.910
423.4510, 4360.937
424.6450, 3413.321
425.8390, 3034.911
427.0320, 2496.276
428.2260, 2257.801
429.4190, 1982.319
430.6120, 1827.817
431.8050, 1784.310
432.9980, 1731.803
434.1900, 1740.299
435.3830, 1710.781
436.5750, 1761.279
437.7670, 1537.813
438.9590, 1421.380
440.1500, 1203.949
441.3420, 847.5103
442.5330, 760.0469
443.7240, 461.5571
444.9150, 477.0420
446.1060, 91.50000
447.2960, 77.91895
448.4870, 28.97217
449.6770, 114.2222
450.8670, 124.6387
452.0570, 129.0718
453.2460, 86.32520
454.4360, 100.5630
455.6250, 160.6289
456.8140, 3.183594
458.0030, 16.56104
459.1920, 157.5479
460.3800, 69.17041
461.5690, 46.70850
462.7570, 137.2280
463.9450, 14.74463
465.1330, 85.55225
466.3200, 197.5732
467.5080, 181.7939
468.6950, 146.4976
469.8820, 175.2192
471.0690, 139.9937
472.2560, 215.8047
473.4420, 223.1523
474.6280, 377.4263
475.8150, 319.0479
477.0010, 322.7310
478.1860, 403.9668
479.3720, 721.5977
480.5570, 656.7300
481.7430, 904.9844
482.9280, 893.1938
484.1130, 1009.395
485.2970, 1202.448
486.4820, 1186.287
487.6660, 1239.159
488.8500, 1229.404
490.0340, 1146.320
491.2180, 1086.202
492.4020, 908.5576
493.5850, 922.8599
494.7680, 849.6357
495.9520, 715.3760
497.1340, 709.0801
498.3170, 580.7480
499.5000, 700.3794
500.6820, 621.9746
501.8640, 786.5337
503.0460, 918.0557
504.2280, 1023.540
505.4100, 1087.988
506.5910, 1415.398
507.7720, 1506.771
508.9530, 1826.107
510.1340, 1975.405
511.3150, 2359.665
512.4960, 2454.887
513.6760, 2635.071
514.8560, 2743.218
516.0360, 2673.325
517.2160, 2555.395
518.3960, 2643.430
519.5750, 2545.426
520.7550, 2511.404
521.9340, 2416.344
523.1130, 2476.248
524.2910, 2421.117
525.4700, 2659.987
526.6480, 2663.855
527.8270, 2708.754
529.0050, 2899.614
530.1820, 2846.437
531.3600, 2809.238
532.5380, 2874.021
533.7150, 2781.812
534.8920, 2731.622
536.0690, 2648.411
537.2460, 2538.184
538.4220, 2321.948
539.5990, 2227.701
540.7750, 2202.427
541.9510, 2150.123
543.1270, 2082.810
544.3030, 2068.030
545.4780, 1966.021
546.6540, 1840.604
547.8290, 1782.031
549.0040, 1732.724
550.1790, 1690.259
551.3530, 1626.770
552.5280, 1559.839
553.7020, 1482.688
554.8760, 1407.104
556.0500, 1368.579
557.2240, 1291.905
558.3970, 1304.660
559.5710, 1221.316
560.7440, 1251.078
561.9170, 1250.955
563.0900, 1124.927
564.2630, 1176.997
565.4350, 1169.142
566.6080, 1254.343
567.7800, 1185.587
568.9520, 1135.804
570.1240, 1139.979
571.2950, 1187.111
572.4670, 1207.198
573.6380, 1189.101
574.8090, 1151.244
575.9800, 1169.202
577.1510, 1112.115
578.3210, 1150.984
579.4920, 1123.809
580.6620, 1148.589
581.8320, 1009.323
583.0020, 1027.012
584.1710, 895.6562
585.3410, 798.2544
586.5100, 804.8076
587.6790, 596.1479
588.8480, 594.1309
590.0170, 497.8940
591.1860, 312.2441
592.3540, 311.8770
593.5220, 168.1704
594.6910, 87.07471
595.8590, 65.00049
597.0260, 17.93115
598.1940, 70.14502
599.3610, 94.48389
600.5280, 139.7710
601.6950, 161.4814
602.8620, 156.9219
604.0290, 175.0273
605.1960, 134.4844
606.3620, 115.4263
607.5280, 103.4492
608.6940, 127.9897
609.8600, 65.70605
611.0260, 67.59814
612.1910, 21.37793
613.3560, 1.629883
614.5210, 1.884766
615.6860, 21.95068
616.8510, 139.9502
618.0160, 179.9019
619.1800, 258.8081
620.3440, 182.6743
621.5080, 163.4966
622.6720, 334.2725
623.8360, 328.0122
625.0000, 415.7144
626.1630, 400.3809
627.3260, 621.0127
628.4890, 652.6084
629.6520, 734.1680
630.8150, 720.6929
631.9770, 854.1816
633.1390, 900.6357
634.3020, 983.0552
635.4640, 1058.438
636.6250, 1156.788
637.7870, 1407.102
638.9480, 1523.381
640.1100, 1692.625
641.2710, 1884.834
642.4320, 2046.010
643.5930, 2389.150
644.7530, 2740.257
645.9140, 3047.329
647.0740, 3378.366
648.2340, 3913.369
649.3940, 4244.339
650.5530, 4856.276
651.7130, 5480.176
652.8720, 6098.045
654.0320, 6869.880
655.1910, 7598.682
656.3490, 8700.449
657.5080, 10098.80
658.6670, 11659.50
659.8250, 13936.38
660.9830, 16767.01
662.1410, 20359.31
663.2990, 24651.15
664.4570, 30471.84
665.6140, 37856.79
666.7710, 46311.02
667.9280, 55919.75
669.0850, 65852.24
670.2420, 75521.51
671.3990, 83204.35
672.5550, 88133.48
673.7110, 88681.20
674.8680, 85609.36
676.0230, 77494.57
677.1790, 67639.83
678.3350, 56584.55
679.4900, 45905.13
680.6450, 36860.36
681.8000, 29100.09
682.9550, 23658.08
684.1100, 19022.06
685.2650, 15530.50
686.4190, 13047.04
687.5730, 10813.86
688.7270, 9323.585
689.8810, 7967.863
691.0350, 6781.049
692.1880, 6193.742
693.3420, 5488.603
694.4950, 4894.267
695.6480, 4269.830
696.8010, 3973.666
697.9530, 3578.844
699.1060, 3476.970
700.2580, 3154.379
701.4100, 2822.759
702.5620, 2561.091
703.7140, 2385.380
704.8660, 2288.630
706.0170, 2109.838
707.1680, 1998.006
708.3200, 1803.133
709.4700, 1826.219
710.6210, 1750.265
711.7720, 1588.270
712.9220, 1506.234
714.0730, 1464.159
715.2230, 1421.045
716.3730, 1307.891
717.5220, 1460.697
718.6720, 1311.465
719.8210, 1398.194
720.9710, 1323.885
722.1200, 1311.537
723.2690, 1372.151
724.4170, 1334.728
725.5660, 1395.267
726.7140, 1499.774
727.8630, 1646.254
729.0110, 1650.726
730.1590, 1825.602
731.3060, 1855.566
732.4540, 2066.233
733.6010, 2349.777
734.7480, 2685.038
735.8950, 2980.134
737.0420, 3479.023
738.1890, 3682.903
739.3360, 4051.292
740.4820, 4463.490
741.6280, 4530.113
742.7740, 4718.575
743.9200, 4969.671
745.0660, 5153.968
746.2110, 5230.996
747.3570, 5452.473
748.5020, 5605.856
749.6470, 5603.120
750.7920, 5387.270
751.9360, 5084.816
753.0810, 4468.369
754.2250, 4188.511
755.3690, 3442.530
756.5130, 3139.936
757.6570, 2571.889
758.8010, 2240.286
759.9440, 1955.507
761.0880, 1520.720
762.2310, 1378.889
763.3740, 1392.152
764.5170, 1091.396
765.6590, 1066.621
766.8020, 889.8271
767.9440, 719.9028
769.0860, 884.8774
770.2280, 739.3364
771.3700, 805.4702
772.5120, 735.0840
773.6530, 680.6855
774.7950, 577.7676
775.9360, 539.8330
777.0770, 496.8823
778.2180, 457.9155
779.3580, 426.0278
780.4990, 416.9346
781.6390, 382.9209
782.7790, 297.8931
783.9190, 310.8501
785.0590, 245.7920
786.1990, 295.7207
787.3380, 219.6357
788.4780, 216.5366
789.6170, 191.9883
790.7560, 133.3008
791.8950, 102.1641
793.0330, 101.0156
794.1720, 7.855957
795.3100, 121.6758
796.4480, 54.51514
797.5860, 84.24268
798.7240, 3.990234
799.8620, 16.71826
800.9990, 136.5688
802.1360, 125.9458
803.2740, 243.4087
804.4110, 11.98193
805.5470, 42.35938
806.6840, 57.21289
807.8210, 67.95117
808.9570, 169.6797
810.0930, 212.5112
811.2290, 61.46777
812.3650, 80.46875
813.5010, 114.5244
814.6360, 107.6499
815.7710, 42.84131
816.9070, 38.06396
818.0420, 29.53613
819.1760, 36.20850
820.3110, 37.88574
821.4460, 82.20947
822.5800, 101.5791
823.7140, 108.0054
824.8480, 92.48975
825.9820, 71.02295
827.1160, 31.59375
828.2490, 22.18213
829.3820, 1.535645
830.5160, 101.3911
831.6490, 30.95361
832.7820, 42.29736
833.9140, 71.64160
835.0470, 43.01416
836.1790, 105.3130
837.3110, 6.641113
838.4430, 83.96973
839.5750, 77.29932
840.7070, 106.6309
841.8380, 134.9653
842.9700, 179.3022
844.1010, 92.64258
845.2320, 132.9863
846.3630, 232.3340
847.4940, 329.6860
848.6240, 250.0420
849.7550, 186.4033
850.8850, 304.7700
852.0150, 242.1421
853.1450, 230.5200
854.2750, 152.9038
855.4040, 171.2944
856.5340, 102.9170
857.6630, 234.0444
858.7920, 313.6836
859.9210, 344.6021
861.0500, 180.8535
862.1780, 268.4775
863.3070, 255.3853
864.4350, 238.1538
865.5630, 361.1851
866.6910, 225.7798
867.8190, 346.6128
868.9460, 365.1641
870.0740, 430.5669
871.2010, 394.6094
872.3280, 390.0000
873.4550, 486.8379
874.5820, 527.5874
875.7090, 480.1763
876.8350, 548.8306
877.9610, 410.2822
879.0880, 453.7139
880.2140, 575.6670
881.3390, 533.6631
882.4650, 604.5029
883.5910, 632.4575
884.7160, 465.2637
885.8410, 637.5537
886.9660, 663.0771
888.0910, 537.9048
889.2160, 698.6543
890.3400, 640.9512
891.4650, 684.4194
892.5890, 709.9043
893.7130, 763.5088
894.8370, 769.9233
895.9600, 874.4727
897.0840, 893.0361
898.2070, 972.6147
899.3310, 1061.206
900.4540, 1062.813
901.5770, 971.4341
902.6990, 1150.070
903.8220, 1208.720
904.9440, 1264.387
906.0670, 1417.068
907.1890, 1325.766
908.3110, 1440.492
909.4320, 1380.234
910.5540, 1368.006
911.6750, 1532.796
912.7970, 1718.624
913.9180, 1590.483
915.0390, 1740.370
916.1600, 1966.274
917.2800, 1984.198
918.4010, 2187.170
919.5210, 2734.165
920.6410, 2788.188
921.7610, 3298.266
922.8810, 3858.387
924.0010, 4412.541
925.1200, 4890.745
926.2400, 5626.007
927.3590, 6186.325
928.4780, 6703.662
929.5970, 7234.424
930.7160, 7288.837
931.8340, 7174.061
932.9530, 6753.540
934.0710, 6178.340
935.1890, 5630.600
936.3070, 4700.996
937.4250, 4249.138
938.5420, 3644.986
939.6600, 3417.330
940.7770, 2925.917
941.8940, 2824.729
943.0110, 2630.951
944.1280, 2570.878
945.2450, 2370.213
946.3610, 2296.156
947.4770, 2226.019
948.5940, 1973.858
949.7100, 2043.240
950.8250, 1849.751
951.9410, 1686.625
953.0570, 1529.000
954.1720, 1463.147
955.2870, 1350.285
956.4020, 1210.958
957.5170, 1290.532
958.6320, 1070.816
959.7470, 1140.194
960.8610, 1171.017
961.9750, 984.9238
963.0890, 973.3262
964.2030, 971.5811
965.3170, 935.0410
966.4310, 903.6074
967.5440, 800.2061
968.6570, 859.1406
969.7710, 811.6377
970.8840, 914.5166
971.9960, 833.2344
973.1090, 785.9941
974.2220, 849.8037
975.3340, 871.6504
976.4460, 810.5371
977.5580, 706.4619
978.6700, 754.4199
979.7820, 635.4111
980.8930, 704.4326
982.0050, 713.4854
983.1160, 761.5703
984.2270, 721.6865
985.3380, 773.8350
986.4490, 653.0137
987.5600, 741.2227
988.6700, 771.4619
989.7800, 724.7314
990.8900, 841.0312
992.0000, 702.3613
993.1100, 719.7236
994.2200, 800.1152
995.3300, 921.5371
996.4390, 983.9902
997.5480, 1043.473
998.6570, 1183.984
999.7660, 1209.527
1000.875, 1276.099
1001.983, 1384.700
1003.092, 1410.866
1004.200, 1622.992
1005.308, 1544.682
1006.416, 1626.400
1007.524, 1767.146
1008.632, 1716.922
1009.739, 2046.727
1010.846, 2087.558
1011.954, 2266.417
1013.061, 2347.303
1014.167, 2575.216
1015.274, 2703.155
1016.381, 2981.120
1017.487, 3309.110
1018.593, 3401.127
1019.699, 4060.168
1020.805, 4611.234
1021.911, 5369.326
1023.017, 6650.475
1024.122, 7377.884
1025.227, 8664.779
1026.333, 9141.080
1027.438, 9895.324
1028.542, 10312.12
1029.647, 10315.55
1030.752, 9707.835
1031.856, 8951.140
1032.960, 7891.470
1034.064, 6848.824
1035.168, 6139.265
1036.272, 5234.147
1037.375, 4541.555
1038.479, 3918.794
1039.582, 3422.260
1040.685, 3222.758
1041.788, 3096.307
1042.891, 2924.432
1043.994, 2961.531
1045.096, 3111.923
1046.198, 3130.408
1047.301, 3486.306
1048.403, 3728.374
1049.505, 4326.375
1050.606, 4705.043
1051.708, 5334.925
1052.809, 6173.480
1053.911, 6787.053
1055.012, 7503.540
1056.113, 8269.257
1057.213, 9089.429
1058.314, 10253.67
1059.414, 10335.40
1060.515, 9835.949
1061.615, 9290.065
1062.715, 8694.680
1063.815, 8407.738
1064.915, 7726.894
1066.014, 7969.385
1067.114, 8029.781
1068.213, 8124.365
1069.312, 7693.000
1070.411, 7326.430
1071.510, 6525.217
1072.608, 5786.988
1073.707, 4994.965
1074.805, 4387.310
1075.903, 3998.504
1077.001, 3443.520
1078.099, 2933.967
1079.197, 2741.200
1080.294, 2478.874
1081.392, 2335.677
1082.489, 1994.108
1083.586, 1998.361
1084.683, 1803.313
1085.780, 1770.501
1086.877, 1496.104
1087.973, 1387.083
1089.069, 1272.533
1090.166, 1235.674
1091.262, 1078.063
1092.358, 1071.110
1093.453, 1000.317
1094.549, 968.2646
1095.644, 870.1982
1096.739, 898.4912
1097.835, 958.2334
1098.930, 891.4678
1100.024, 974.6533
1101.119, 883.4238
1102.214, 995.0449
1103.308, 808.1943
1104.402, 994.3838
1105.496, 893.7764
1106.590, 820.7559
1107.684, 859.9619
1108.777, 781.2490
1109.871, 831.7549
1110.964, 840.0518
1112.057, 725.8750
1113.150, 955.7900
1114.243, 813.2285
1115.336, 868.0283
1116.428, 694.3242
1117.521, 711.1172
1118.613, 775.9453
1119.705, 618.7275
1120.797, 798.5068
1121.889, 716.2803
1122.980, 742.1914
1124.072, 754.2441
1125.163, 742.0049
1126.254, 679.8535
1127.345, 533.6055
1128.436, 583.3535
1129.527, 467.2207
1130.617, 467.9551
1131.708, 345.6836
1132.798, 306.4023
1133.888, 269.1133
1134.978, 373.8164
1136.068, 390.5117
1137.157, 317.1973
1138.247, 233.8750
1139.336, 231.5469
1140.425, 223.2090
1141.514, 210.8604
1142.603, 344.5029
1143.692, 144.1338
1144.781, 107.7568
1145.869, 208.3672
1146.957, 143.9678
1148.046, 102.5586
1149.134, 85.13672
1150.221, 91.70312
1151.309, 50.25684
1152.397, 163.7979
1153.484, 24.32617
1154.571, 130.8418
1155.658, 73.63086
1156.745, 16.35156
1157.832, 38.30371
1158.919, 61.23633
1160.005, 12.18359
1161.092, 60.58789
1162.178, 73.97656
1163.264, 83.56445
1164.350, 76.95996
1165.435, 54.05273
1166.521, 50.37695
1167.606, 44.68457
1168.692, 70.97656
1169.777, 140.2490
1170.862, 53.49707
1171.947, 80.70996
1173.031, 44.09863
1174.116, 3.950195
1175.200, 76.82715
1176.285, 44.76758
1177.369, 33.75488
1178.453, 6.215820
1179.536, 30.16309
1180.620, 104.9141
1181.704, 11.07520
1182.787, 20.26953
1183.870, 130.5039
1184.953, 79.83691
1186.036, 34.24316
1187.119, 103.6992
1188.201, 135.2432
1189.284, 117.2090
1190.366, 111.3652
1191.448, 54.40332
1192.530, 41.23535
1193.612, 104.8730
1194.694, 74.04395
1195.775, 24.96387
1196.857, 49.93945
1197.938, 33.11133
1199.019, 0.2207030
1200.100, 77.62793
1201.181, 14.55176
1202.262, 33.21680
1203.342, 47.04590
1204.423, 139.6211
1205.503, 20.67773
1206.583, 4.866211
1207.663, 95.57617
1208.743, 27.11523
1209.822, 32.71680
1210.902, 1.386719
1211.981, 30.98730
1213.060, 69.63574
1214.139, 95.51855
1215.218, 82.36035
1216.297, 190.6650
1217.376, 106.6602
1218.454, 13.62207
1219.532, 85.53613
1220.611, 18.41602
1221.689, 126.2480
1222.766, 95.09375
1223.844, 10.85742
1224.922, 52.43262
1225.999, 9.560547
1227.076, 0.3349610
1228.154, 110.8379
1229.231, 124.3047
1230.307, 230.1748
1231.384, 63.57227
1232.461, 140.9346
1233.537, 133.6943
1234.613, 21.01465
1235.689, 50.58691
1236.765, 16.84668
1237.841, 43.31543
1238.917, 87.79102
1239.992, 121.8232
1241.068, 235.9521
1242.143, 221.8613
1243.218, 105.3662
1244.293, 308.7549
1245.368, 133.7715
1246.442, 272.8027
1247.517, 246.6250
1248.591, 302.4121
1249.666, 273.2021
1250.740, 267.1650
1251.813, 227.9346
1252.887, 193.9502
1253.961, 286.2529
1255.034, 244.9473
1256.108, 278.6357
1257.181, 321.8799
1258.254, 240.5889
1259.327, 280.4883
1260.400, 384.9609
1261.472, 291.3848
1262.545, 285.7822
1263.617, 330.2744
1264.689, 352.1289
1265.761, 467.4316
1266.833, 465.0771
1267.905, 398.1064
1268.976, 489.2812
1270.048, 422.8018
1271.119, 382.9033
1272.190, 563.1729
1273.261, 406.8164
1274.332, 493.8115
1275.403, 377.3301
1276.473, 445.5771
1277.544, 415.6953
1278.614, 430.9092
1279.684, 336.8730
1280.754, 483.7100
1281.824, 464.8213
1282.894, 394.7090
1283.963, 331.4980
1285.033, 355.7988
1286.102, 462.2119
1287.171, 375.2705
1288.240, 402.3154
1289.309, 359.9727
1290.377, 424.5781
1291.446, 363.5801
1292.514, 425.9551
1293.583, 452.4990
1294.651, 448.5391
1295.719, 424.3301
1296.787, 495.8818
1297.854, 418.0312
1298.922, 466.1816
1299.989, 447.2852
1301.056, 424.9814
1302.123, 423.7432
1303.190, 438.2852
1304.257, 472.5635
1305.324, 452.8223
1306.390, 480.4297
1307.457, 461.6191
1308.523, 476.0859
1309.589, 532.8662
1310.655, 457.4180
1311.721, 513.2783
1312.787, 548.1045
1313.852, 457.9980
1314.917, 498.6416
1315.983, 477.8164
1317.048, 570.9053
1318.113, 548.0186
1319.178, 445.3438
1320.242, 536.1943
1321.307, 449.7705
1322.371, 369.9355
1323.435, 491.2539
1324.499, 520.9766
1325.563, 456.7783
1326.627, 353.3750
1327.691, 263.9404
1328.754, 304.7285
1329.818, 328.2061
1330.881, 343.6768
1331.944, 283.9307
1333.007, 271.8135
1334.070, 312.8545
1335.132, 387.1035
1336.195, 364.9639
1337.257, 369.0381
1338.320, 313.6797
1339.382, 202.2090
1340.444, 192.1211
1341.505, 295.2070
1342.567, 337.5869
1343.629, 411.7490
1344.690, 365.4590
1345.751, 363.7861
1346.812, 433.6426
1347.873, 274.8135
1348.934, 239.7275
1349.995, 198.9883
1351.055, 265.0654
1352.116, 267.3867
1353.176, 144.7080
1354.236, 120.9150
1355.296, 253.4102
1356.356, 277.3896
1357.416, 93.38965
1358.475, 359.8564
1359.535, 201.0869
1360.594, 94.16699
1361.653, 220.0732
1362.712, 101.7549
1363.771, 60.81836
1364.829, 21.37012
1365.888, 133.5889
1366.946, 268.4785
1368.005, 168.7021
1369.063, 33.99805
1370.121, 68.29492
1371.179, 81.88281
1372.236, 162.9092
1373.294, 149.4111
1374.351, 247.1084
1375.409, 203.0225
1376.466, 239.7842
1377.523, 152.6885
1378.580, 190.5713
1379.636, 132.3389
1380.693, 69.21777
1381.749, 32.41406
1382.806, 184.1396
1383.862, 62.90527
1384.918, 161.8115
1385.974, 123.5098
1387.029, 184.2246
1388.085, 244.9082
1389.140, 200.5723
1390.196, 169.2188
1391.251, 77.95898
1392.306, 196.5674
1393.361, 215.2354
1394.416, 21.80859
1395.470, 208.4590
1396.525, 108.9922
1397.579, 218.5068
1398.633, 151.0039
1399.687, 66.48438
1400.741, 238.9443
1401.795, 72.38867
1402.849, 119.9414
1403.902, 141.3486
1404.955, 109.8154
1406.009, 160.1855
1407.062, 181.5410
1408.115, 106.8809
1409.168, 143.1943
1410.220, 165.4932
1411.273, 144.7764
1412.325, 100.0371
1413.377, 72.20020
1414.429, 172.3379
1415.481, 110.4717
1416.533, 153.6006
1417.585, 63.54688
1418.636, 207.5166
1419.688, 139.5352
1420.739, 191.3359
1421.790, 85.11230
1422.841, 76.86328
1423.892, 192.5918
1424.943, 205.2949
1425.993, 183.9727
1427.044, 49.63770
1428.094, 106.2754
1429.144, 160.8965
1430.194, 148.4912
1431.244, 219.0762
1432.294, 202.7949
1433.344, 231.4844
1434.393, 203.7109
1435.442, 279.1973
1436.492, 324.6826
1437.541, 372.5273
1438.590, 364.9648
1439.638, 392.5732
1440.687, 468.2051
1441.735, 402.6504
1442.784, 413.1045
1443.832, 416.5732
1444.880, 468.0566
1445.928, 565.5186
1446.976, 393.9795
1448.024, 555.7354
1449.071, 445.1318
1450.119, 604.5312
1451.166, 600.9102
1452.213, 492.2646
1453.260, 570.5703
1454.307, 480.2910
1455.353, 502.5312
1456.400, 491.3018
1457.447, 525.7910
1458.493, 562.2793
1459.539, 476.7979
1460.585, 622.3799
1461.631, 502.7471
1462.677, 349.3936
1463.722, 415.0879
1464.768, 337.7734
1465.813, 343.4629
1466.858, 329.0938
1467.903, 296.5410
1468.948, 153.9453
1469.993, 312.2305
1471.038, 293.9922
1472.082, 435.2490
1473.127, 278.9082
1474.171, 297.9229
1475.215, 228.5352
1476.259, 254.9131
1477.303, 210.8184
1478.346, 245.1953
1479.390, 91.72754
1480.433, 369.8818
1481.477, 205.1104
1482.520, 291.0410
1483.563, 134.2969
1484.606, 28.08496
1485.649, 127.3838
1486.691, 224.7910
1487.734, 296.0420
1488.776, 167.6650
1489.818, 193.3867
1490.860, 90.48633
1491.902, 56.23828
1492.944, 65.69336
1493.986, 4.740234
1495.027, 73.27148
1496.069, 109.9160
1497.110, 158.1572
1498.151, 166.3418
1499.192, 19.32031
1500.233, 217.8535
1501.273, 116.3994
1502.314, 209.2676
1503.354, 180.3262
1504.395, 55.68652
1505.435, 69.70117
1506.475, 62.53223
1507.515, 142.5967
1508.555, 166.6748
1509.594, 110.7627
1510.634, 125.8633
1511.673, 146.9736
1512.712, 176.1006
1513.751, 160.2119
1514.790, 183.3984
1515.829, 123.5703
1516.868, 157.7637
1517.906, 131.9766
1518.945, 193.2158
1519.983, 127.4570
1521.021, 263.6836
1522.059, 167.8955
1523.097, 168.0859
1524.135, 252.2520
1525.172, 324.3379
1526.210, 195.4678
1527.247, 122.5898
1528.284, 237.7686
1529.321, 136.0410
1530.358, 180.6553
1531.395, 175.9111
1532.432, 185.6943
1533.468, 256.1719
1534.505, 271.4482
1535.541, 252.7607
1536.577, 324.1797
1537.613, 203.9453
1538.649, 153.3730
1539.685, 263.2480
1540.720, 126.7012
1541.756, 195.2520
1542.791, 71.63867
1543.826, 51.63477
1544.861, 112.7832
1545.896, 102.9707
1546.931, 262.8896
1547.966, 127.7021
1549.000, 127.9072
1550.034, 243.0293
1551.069, 121.8320
1552.103, 193.8057
1553.137, 342.5244
1554.171, 258.3564
1555.204, 339.0732
1556.238, 161.7998
1557.271, 211.1553
1558.305, 129.0811
1559.338, 300.0381
1560.371, 189.0430
1561.404, 1.554688
1562.437, 222.4561
1563.469, 46.39160
1564.502, 6.194336
1565.534, 149.8945
1566.566, 171.5244
1567.599, 98.12793
1568.631, 85.83691
1569.662, 72.75977
1570.694, 149.0400
1571.726, 1.654297
1572.757, 96.27441
1573.789, 147.7305
1574.820, 123.9707
1575.851, 298.6826
1576.882, 138.5518
1577.912, 0.3300780
1578.943, 145.5684
1579.974, 0.0000000E+00
##END=



